#   1 FLAGS                  Extraction flags                                          
#   2 X_IMAGE                Object position along x                                    [pixel]
#   3 Y_IMAGE                Object position along y                                    [pixel]
#   4 ALPHA_J2000            Right ascension of barycenter (J2000)                      [deg]
#   5 DELTA_J2000            Declination of barycenter (J2000)                          [deg]
#   6 FLUX_AUTO              Flux within a Kron-like elliptical aperture                [count]
#   7 FLUXERR_AUTO           RMS error for AUTO flux                                    [count]
#   8 BACKGROUND             Background at centroid position                            [count]
#   9 MAG_AUTO               Kron-like elliptical aperture magnitude                    [mag]
#  10 MAGERR_AUTO            RMS error for AUTO magnitude                               [mag]
#  11 FWHM_IMAGE             FWHM assuming a gaussian core                              [pixel]
#  12 ELONGATION             A_IMAGE/B_IMAGE                                           
  3     49.9757    284.8777 159.1576698 +15.5469620     136420.2     2528.646     4921.504 -12.8372   0.0201    29.28   45.746
 19     50.0240    177.2666 159.1577027 +15.5654697       125778     2453.124     4898.564 -12.7490   0.0212    28.07   52.682
  0    234.0489     36.7314 159.1248984 +15.5897061     286908.8     1319.525     4906.903 -13.6444   0.0050     4.20    1.081
  0    246.4667     20.9250 159.1226868 +15.5924289      1132622     1377.995     4903.912 -15.1352   0.0013     4.24    1.072
  0   1218.7577     22.2194 158.9490752 +15.5924731     17279.03      668.564     4969.939 -10.5938   0.0420     3.63    1.123
  3     50.0000     63.8894 159.1577508 +15.5849691     67942.04     1936.473     4838.648 -12.0803   0.0310    11.88    9.083
  6     50.1594     47.8247 159.1577285 +15.5877321     313165.7      702.154     4815.868 -13.7394   0.0024     5.30    2.297
  0     50.2197     37.4378 159.1577218 +15.5895185      22594.3     984.3452     4800.206 -10.8850   0.0473     1.40    1.465
  0    881.4328     66.9984 159.0092959 +15.5846945     903230.6     1307.883     5031.659 -14.8895   0.0016     3.64    1.018
  0   1592.9857     42.7146 158.8822501 +15.5890145     26279.52     1462.032     4916.562 -11.0490   0.0604     8.17    1.561
  0   1579.3912     39.5213 158.8846780 +15.5895617     2241.064     286.4383     4920.239  -8.3761   0.1388     0.30    1.024
  3     50.0000     88.9920 159.1577411 +15.5806518     20241.92     772.5458     4874.244 -10.7656   0.0414     8.50    7.192
  0    684.6593     52.8083 159.0444344 +15.5870825     19447.96      843.259     5013.688 -10.7222   0.0471     3.92    1.086
  0    546.8870     46.1499 159.0690363 +15.5881875     7772.998     790.1552     5001.021  -9.7265   0.1104     4.93    1.375
  0    339.9457     69.1275 159.1059788 +15.5841702      50177.1      815.889     4965.955 -11.7513   0.0177     3.86    1.053
  3     50.0000    120.0445 159.1577291 +15.5753112     49713.73     1495.618     4888.356 -11.7412   0.0327    10.58   12.720
  0   1711.5264     77.7831 158.8610791 +15.5830000      9899.71     844.4404     4900.869  -9.9891   0.0926     5.12    1.390
  0    857.9283    102.7816 159.0134832 +15.5785342     102653.5     863.5607     5039.125 -12.5284   0.0091     3.51    1.046
  0    921.2047    102.8397 159.0021854 +15.5785402     4456.013     396.6566      5032.15  -9.1224   0.0967     1.09    1.169
  0   1071.1287    115.3302 158.9754139 +15.5764274     20903.69     674.9263     5021.529 -10.8006   0.0351     3.71    1.063
  0   1552.9818    143.3921 158.8893767 +15.5716931      95617.8     995.8799     4939.968 -12.4513   0.0113     3.81    1.019
  0   1351.9481    144.6026 158.9252692 +15.5714506     91600.12     1011.682     4994.115 -12.4047   0.0120     3.73    1.022
  0    480.0208    145.7845 159.0809435 +15.5710311     28855.06     1391.578     5008.935 -11.1506   0.0524     7.28    1.530
  0     34.7302    169.2780 159.1604363 +15.5668380      82001.6     1237.454     4889.474 -12.2846   0.0164     4.63    1.204
  0     10.4731    146.4722 159.1647760 +15.5707511     2703.627     286.8397     4879.709  -8.5799   0.1152     0.13    1.023
  0   2026.9290    165.0070 158.8047559 +15.5680335     68468.07     1101.962     4910.415 -12.0887   0.0175     4.45    1.056
  0   1339.3475    168.1126 158.9275144 +15.5674048     30692.22     955.1258     5000.736 -11.2176   0.0338     3.76    1.071
  0    812.8789    168.6280 159.0215087 +15.5671978     2926.109     287.0326     5045.396  -8.6657   0.1065     1.21    1.573
  0   1168.0758    181.8464 158.9580898 +15.5650086      6580.34     380.6635     5019.187  -9.5456   0.0628     1.21    1.010
  3     50.0145    352.7083 159.1576367 +15.5352961     136590.8     1245.676     4971.975 -12.8386   0.0099     8.78  166.429
  0   1611.1986    187.7836 158.8789758 +15.5640672     5403.706     361.7052     4921.399  -9.3317   0.0727     0.95    1.094
  0    943.0452    193.5512 158.9982628 +15.5629443     2869.049     330.6609     5040.517  -8.6443   0.1252     1.02    1.445
  0   1832.7690    208.7684 158.8394153 +15.5604873     5096.535     361.4939     4885.433  -9.2682   0.0770     2.19    1.117
  0   1355.5459    252.6525 158.9246062 +15.5528680     806160.6     1281.418      5002.67 -14.7661   0.0017     3.61    1.022
  0   1532.9637    243.8872 158.8929341 +15.5544060     99151.65     976.2526     4966.832 -12.4908   0.0107     3.77    1.049
  0    690.6315    267.3808 159.0433057 +15.5501803     270690.7     1051.596     5047.549 -13.5812   0.0042     3.49    1.046
  0    949.3229    261.7400 158.9971248 +15.5512181     14137.42     787.8879     5040.479 -10.3759   0.0605     4.07    1.156
  0   1565.1931    259.0859 158.8871779 +15.5517971     7257.093     736.9916     4953.583  -9.6519   0.1103     4.47    1.273
  0   1522.5924    281.4185 158.8947794 +15.5479494     5900.063     414.1782     4971.771  -9.4271   0.0762     4.59    1.201
  3     46.5041    296.5172 159.1582850 +15.5449589     14441.77     888.5533     4925.291 -10.3991   0.0668     7.40    1.320
  0   1698.0056    298.9220 158.8634621 +15.5449650     13388.46     1041.995     4901.321 -10.3168   0.0845     5.83    1.203
  0   1620.5946    298.1890 158.8772814 +15.5450801     5074.087      388.458     4940.717  -9.2634   0.0831     2.29    1.304
  0   1708.5972    349.2879 158.8615643 +15.5363041     77392.63     1066.691     4931.163 -12.2217   0.0150     3.86    1.063
  0   1312.4902    356.8426 158.9322720 +15.5349404     28464.82     809.2421     5025.965 -11.1358   0.0309     3.60    1.111
  0    726.6034    364.4361 159.0368562 +15.5334979     27341.44     914.5549     5066.101 -11.0921   0.0363     3.41    1.014
  0   1470.4209    370.5508 158.9040775 +15.5326111     2549.705     330.4206     5006.614  -8.5162   0.1407     0.23    1.008
  0   1673.5082    391.5794 158.8678219 +15.5290257     2385.364     286.5636     4956.507  -8.4439   0.1305     0.23    1.013
  0    778.6877    425.6306 159.0275417 +15.5229873     438767.2     1133.091     5074.378 -14.1056   0.0028     3.42    1.053
  2     50.0000    436.3801 159.1576070 +15.5209056     40020.56     1264.153     5033.526 -11.5057   0.0343     8.75   11.169
  0    659.2233    419.9587 159.0488677 +15.5239299     201462.9     1048.041     5073.927 -13.2605   0.0056     3.44    1.031
  0    288.3384    406.3956 159.1150751 +15.5261471     9992.544     755.9728     5045.197  -9.9992   0.0822     3.51    1.187
  0   1917.2456    409.8960 158.8243119 +15.5259051      16981.9       396.01     4921.743 -10.5750   0.0253     1.04    1.105
 16      2.4904    407.5166 159.1660986 +15.5258519     9221.674     596.0645       4977.7  -9.9120   0.0702     0.62    1.004
  0    889.9258    413.1757 159.0076891 +15.5251583     7439.514     750.6533     5062.163  -9.6789   0.1096     4.26    1.283
  2     50.0000    462.4872 159.1575969 +15.5164155     21649.66     843.9082     5052.087 -10.8386   0.0423     8.55    7.415
  0    102.1755    423.0162 159.1482989 +15.5232232     10948.95     876.1029      5056.81 -10.0984   0.0869     4.80    1.254
  0   1955.5249    448.5101 158.8174751 +15.5192678     7065.232     638.8855     4930.358  -9.6228   0.0982     0.54    1.021
  3     50.0000    477.5560 159.1575911 +15.5138239     9886.727     639.9832     5063.509  -9.9876   0.0703     7.16    8.045
  3     50.0000    492.0485 159.1575855 +15.5113314     15012.39     672.7514      5068.78 -10.4411   0.0487     8.04    7.434
  4   1327.3254    509.0389 158.9295940 +15.5087673      1779338     1571.674     5058.177 -15.6256   0.0010     3.93    1.032
  0    167.4494    496.5880 159.1366206 +15.5105933     532758.3     1182.413     5104.715 -14.3163   0.0024     3.66    1.041
  0    903.1450    487.1718 159.0053103 +15.5124352       7714.6     772.8771     5074.802  -9.7183   0.1088     3.91    1.334
  0    735.9932    484.7395 159.0351459 +15.5128098     4324.372     576.7352     5082.616  -9.0898   0.1448     2.84    1.534
  3     50.0554    537.4033 159.1575581 +15.5035309     25541.38     816.6437     5081.581 -11.0181   0.0347     9.28    8.004
  3     50.0000    504.9671 159.1575805 +15.5091095     10707.65     477.3783     5072.478 -10.0742   0.0484     5.68    3.440
  0   1784.2059    502.7567 158.8480477 +15.5099191     9829.207     807.6791     4977.634  -9.9813   0.0892     3.94    1.371
  3     50.0000    511.9667 159.1575778 +15.5079057     5823.771     445.5142     5074.469  -9.4130   0.0831     4.98    5.219
  3     50.0000    518.9874 159.1575751 +15.5066982     11859.27     531.4297      5076.46 -10.1851   0.0487     6.61    3.801
  4    930.8455    555.5147 159.0003486 +15.5006879      1031698     1329.559     5092.044 -15.0339   0.0014     3.41    1.032
  0    304.2118    523.8242 159.1122008 +15.5059562     3196.313     298.7749     5109.961  -8.7616   0.1015     1.08    1.255
  3     50.0000    570.9521 159.1575551 +15.4977610     10922.28     898.8932     5093.395 -10.0958   0.0894     8.62    6.450
  3     50.0000    554.9856 159.1575612 +15.5005070     14929.55     996.0419     5087.525 -10.4351   0.0725     6.12    2.360
  0   1422.1892    551.5631 158.9126543 +15.5014709     8103.213     773.0021     5059.087  -9.7716   0.1036     4.32    1.378
  3     50.0000    559.9943 159.1575593 +15.4996456     6643.522     843.4807     5089.359  -9.5560   0.1379     6.31    2.825
  0   1204.7870    579.0281 158.9514505 +15.4967058     152026.4     961.9877     5079.124 -12.9548   0.0069     3.44    1.047
  3     50.0000    581.4495 159.1575510 +15.4959555     6506.135      628.019     5097.063  -9.5333   0.1048     7.26    3.950
  0    977.0823    569.8799 158.9920927 +15.4982284     24624.04     650.8877     5093.945 -10.9784   0.0287     7.42    2.651
  3     50.0000    619.8444 159.1575362 +15.4893521     22426.06     1171.969     5112.566 -10.8769   0.0568    11.21   11.474
  0   2010.6782    575.9979 158.8076184 +15.4973468     4136.742     331.6132     4968.081  -9.0416   0.0871     1.54    1.079
  3     50.0000    589.4807 159.1575479 +15.4945743     5949.126     698.9645     5099.998  -9.4361   0.1276     7.13    3.191
  0     75.2281    595.5028 159.1530431 +15.4935479     87544.57     1975.173     5118.944 -12.3556   0.0245     6.05    1.062
  3     50.0000    603.4585 159.1575425 +15.4921703     8831.819     987.7131     5105.134  -9.8651   0.1215     8.11    4.626
  3     50.0000    596.5359 159.1575452 +15.4933609     5696.684      509.037     5102.933  -9.3891   0.0970     6.54    3.719
  0   1040.8481    594.8563 158.9807059 +15.4939477     3292.604     320.6291     5088.516  -8.7938   0.1058     1.10    1.243
  3     50.0000    638.0298 159.1575292 +15.4862245     19147.99     822.9306     5121.125 -10.7053   0.0467     8.63    5.878
  0    885.3683    619.4700 159.0084486 +15.4896770     21765.77     927.6929     5106.234 -10.8444   0.0463     3.72    1.054
  0   1881.1240    627.7095 158.8307349 +15.4884400     5097.004      429.689     5009.074  -9.2683   0.0916     0.87    1.090
  3     50.0000    661.5899 159.1575201 +15.4821724     27363.66     1204.224     5132.537 -11.0929   0.0478     7.87    9.049
  0    527.9995    643.2076 159.0722208 +15.4854952     10939.18     828.6251      5117.63 -10.0975   0.0823     3.87    1.630
  2     50.0000    650.9709 159.1575242 +15.4839988     13143.53     752.5412     5127.306 -10.2968   0.0622     5.91    2.616
  3     50.0000    675.9828 159.1575145 +15.4796970     14817.17      734.965     5139.625 -10.4269   0.0539     8.38    5.268
  0   2003.1594    662.8226 158.8089521 +15.4824133     3969.336     360.7174      4998.14  -8.9968   0.0987     1.11    1.184
  0   1256.7587    663.9690 158.9421572 +15.4821075     3981.276     360.7256     5106.649  -9.0001   0.0984     1.41    1.053
  3     50.0000    701.0198 159.1575049 +15.4753910     14651.74     734.9091     5155.104 -10.4147   0.0545     9.30    7.440
  3     50.0000    686.9962 159.1575103 +15.4778029     12434.04     492.1764     5146.436 -10.2365   0.0430     5.25    5.584
  0    710.8989    689.7369 159.0395660 +15.4775458      47299.9     759.3202     5128.248 -11.6872   0.0174     3.33    1.018
  0    140.0389    699.6633 159.1414374 +15.4756572     76757.31     2080.284     5200.037 -12.2128   0.0294    10.32    1.809
  0    241.1650    691.6927 159.1233936 +15.4770635     19011.96     866.7957     5194.127 -10.6976   0.0495     4.13    1.177
  0   1258.9871    694.7697 158.9417532 +15.4768105     8541.435     781.8177     5117.508  -9.8288   0.0994     3.17    1.220
  3     50.0000    711.4942 159.1575008 +15.4735895     6722.323     617.2737     5161.296  -9.5688   0.0997     7.34    4.618
  0   1267.2183    697.5106 158.9402837 +15.4763408     14987.65     809.2664     5116.402 -10.4393   0.0586     3.24    1.167
  3     50.0000    719.5264 159.1574977 +15.4722081     3489.949     683.4434     5166.869  -8.8570   0.2127     8.06    3.450
  3     50.0000    726.5313 159.1574950 +15.4710034     7126.206     628.2646     5171.203  -9.6321   0.0957     7.37    5.257
  0    116.9176    715.8705 159.1455574 +15.4728614     12196.42     812.5685     5201.657 -10.2156   0.0724     3.79    1.141
  3     50.0000    736.5276 159.1574912 +15.4692841     8366.118     584.2762     5177.395  -9.8063   0.0758     6.78    6.800
  0   1770.9044    717.1763 158.8503940 +15.4730398      7623.84     737.1154     5045.286  -9.7054   0.1050     3.12    1.254
  0   1379.9381    738.9575 158.9201601 +15.4692338     41917.38     1617.844     5098.089 -11.5560   0.0419     6.09    1.442
  0   1710.2257    725.9918 158.8612212 +15.4715158     2791.625     274.9117     5058.973  -8.6146   0.1069     1.18    1.545
  3     50.0000    751.9630 159.1574852 +15.4666294     9052.887      572.915     5178.357  -9.8920   0.0687     6.78    5.128
  3     50.0000    744.9999 159.1574879 +15.4678270      4475.57     564.9868     5177.908  -9.1271   0.1371     5.11    2.706
  0    243.7999    750.5078 159.1229024 +15.4669490     32071.08     1003.679     5220.064 -11.2653   0.0340     3.61    1.063
  0    174.4985    745.6584 159.1352709 +15.4677589     9182.967     811.6455     5218.469  -9.9075   0.0960     4.15    2.375
  0   1944.5942    751.2867 158.8193946 +15.4671929     3865.179     299.3313     5021.562  -8.9679   0.0841     2.75    1.397
  3     50.0000    760.0062 159.1574821 +15.4652461     5842.566     515.6894      5178.87  -9.4165   0.0959     5.87    2.659
  3     50.0000    769.9726 159.1574783 +15.4635320     7912.399     639.2153     5179.512  -9.7458   0.0877     6.69    3.612
  3     50.0000    765.0065 159.1574802 +15.4643861     4242.241      610.777     5179.191  -9.0690   0.1564     5.22    1.867
  3     50.0000    787.6007 159.1574715 +15.4605002     17622.58     621.6509     5180.667 -10.6152   0.0383     7.09    7.171
  3     50.0000    777.0496 159.1574755 +15.4623149     5382.298     515.4673     5179.961  -9.3274   0.1040     5.91    3.011
  0   1779.7352    788.1006 158.8488090 +15.4608428     21504.44     843.8654     5051.534 -10.8313   0.0426     3.85    1.154
  3     50.0000    804.0963 159.1574651 +15.4576632     17009.92     615.9551     5181.766 -10.5768   0.0393     6.75    5.575
  0    379.5224    794.4835 159.0986679 +15.4594311     26270.88     985.2739     5211.744 -11.0487   0.0407     3.36    1.016
  3     50.0000    812.5043 159.1574619 +15.4562171     6783.543     699.2614     5182.562  -9.5786   0.1119     8.05    3.881
  0   1085.3749    794.2893 158.9727128 +15.4596577      2916.98     298.5423     5171.167  -8.6623   0.1111     1.68    1.486
  3     50.0000    829.0244 159.1574555 +15.4533759     5965.908     763.5314     5183.975  -9.4392   0.1390     8.62    4.706
  3     50.0000    821.0185 159.1574586 +15.4547528     7296.188     554.1883     5183.268  -9.6577   0.0825     6.67    4.265
  0   1497.5785    813.5203 158.8991541 +15.4564302     2913.575     287.0217     5089.952  -8.6611   0.1070     0.35    1.015
  3     50.0740    838.7806 159.1574385 +15.4516980     11146.58     596.8673     5184.859 -10.1179   0.0582     7.21    5.998
  3     50.0000    850.5394 159.1574472 +15.4496756     17960.43     632.5397     5185.919 -10.6358   0.0382     7.08    8.282
  0   1588.4478    849.9141 158.8829336 +15.4501853     263565.5     1065.848     5083.083 -13.5522   0.0044     3.55    1.058
  0   1400.4851    853.8350 158.9164722 +15.4494799     23754.36     1271.601     5122.344 -10.9394   0.0581     5.23    1.163
  0    206.2054    864.1634 159.1295699 +15.4473887     38707.58     661.3666     5250.166 -11.4695   0.0186     6.10    2.746
  0    611.3099    867.9370 159.0572847 +15.4468693     80749.27     957.5679     5205.063 -12.2678   0.0129     3.36    1.048
  3     50.0000    863.9927 159.1574420 +15.4473618     12090.32     884.0887     5187.068 -10.2061   0.0794     5.67    1.914
  3     50.0000    873.5282 159.1574383 +15.4457218     5987.531      750.172     5187.479  -9.4431   0.1361     7.57    4.429
  3     50.0000    868.0024 159.1574405 +15.4466722     3027.219     458.8902     5187.264  -8.7026   0.1646     5.21    2.356
  0   1777.4003    861.5111 158.8492162 +15.4482168     2610.074     298.2864      5061.49  -8.5416   0.1241     0.23    1.035
  0    509.5783    864.7671 159.0754380 +15.4473841     2857.189     309.5837     5213.379  -8.6398   0.1177     1.08    1.452
  3     50.0000    884.0127 159.1574343 +15.4439186     8255.504     623.3249     5187.836  -9.7919   0.0820     7.22    4.151
  0    475.9285    881.1163 159.0814370 +15.4445619     15955.81     487.0784     5221.363 -10.5073   0.0332     5.58    1.545
  3     50.0000    891.0114 159.1574316 +15.4427149     5508.993     588.8137     5188.086  -9.3527   0.1161     6.66    3.118
  3     50.0000    897.9908 159.1574289 +15.4415146     6981.563     589.4354     5188.336  -9.6099   0.0917     6.85    3.543
  0   1297.4464    884.5567 158.9348518 +15.4441770     3214.412     287.2823     5150.697  -8.7678   0.0971     0.08    1.006
  0   1966.5596    894.0690 158.8154605 +15.4426383     18134.54     850.8354     5030.146 -10.6463   0.0510     4.25    1.143
  3     50.0000    907.0311 159.1574254 +15.4399598     7426.668     516.4529     5188.658  -9.6770   0.0755     5.86    6.178
  3     50.0000    916.9484 159.1574216 +15.4382541     10172.99     624.0896     5189.015 -10.0186   0.0666     7.32    6.259
  0    800.0701    914.8699 159.0235908 +15.4388498     101900.1     976.9526     5228.502 -12.5204   0.0104     3.27    1.019
  0    137.9551    899.9939 159.1417346 +15.4412022     12360.04     906.7596     5249.555 -10.2301   0.0797     2.65    1.006
  0   1678.9711    904.5230 158.8667731 +15.4408064     8883.948     655.2194      5070.85  -9.8715   0.0801     5.18    1.234
  0    949.3353    911.6220 158.9969588 +15.4394462     22602.68     1122.027     5222.645 -10.8854   0.0539     4.29    1.146
  3     50.0000    929.5190 159.1574167 +15.4360921     8965.912     628.9926     5189.695  -9.8815   0.0762     7.88    5.559
  0     95.5511    920.1075 159.1492930 +15.4377276     13037.28     833.3112     5246.507 -10.2880   0.0694     3.46    1.197
  0   1089.5059    923.5717 158.9719458 +15.4374236     17150.66     885.5114     5217.621 -10.5857   0.0561     3.58    1.004
  3     50.0000    940.9568 159.1574123 +15.4341250     8903.236     685.4109     5192.456  -9.8739   0.0836     7.77    5.046
  3     50.0000    948.4770 159.1574094 +15.4328316     6866.386     754.9435     5194.212  -9.5918   0.1194     6.55    3.747
  3     50.0000    957.9816 159.1574058 +15.4311970     9024.137     572.9026     5196.722  -9.8885   0.0689     7.07    5.042
  0     14.4101    940.5671 159.1637624 +15.4341787     2517.675     286.6784     5147.354  -8.5025   0.1237     0.13    1.036
  3     50.0000    974.4887 159.1573994 +15.4283580     9812.982     660.6959     5200.737  -9.9795   0.0731     8.19    6.294
  3     50.0000    964.4832 159.1574033 +15.4300788     6539.502     622.6396     5198.228  -9.5389   0.1034     7.25    3.973
  3     50.0000    987.8795 159.1573942 +15.4260549     11163.25     880.0041      5204.25 -10.1195   0.0856    10.11    6.935
  0   1072.6449    959.5771 158.9749458 +15.4312274     12802.29     816.8925     5222.476 -10.2682   0.0693     3.93    1.198
  0    158.4559    961.6078 159.1380539 +15.4306127     9236.822     815.8061     5258.879  -9.9138   0.0959     3.25    1.174
  0   1512.1171    986.4700 158.8965307 +15.4266873     438249.2     1141.872     5128.042 -14.1043   0.0028     3.52    1.031
  0     84.0009    970.3981 159.1513347 +15.4290740     12831.51     932.5544     5241.211 -10.2707   0.0789     3.78    1.139
  0   1535.9734    974.3235 158.8922764 +15.4287802     12190.96     849.0959     5114.494 -10.2151   0.0756     3.78    1.054
  3     50.0547   1002.4813 159.1573789 +15.4235436     13687.19     715.9847     5209.506 -10.3408   0.0568     8.79    7.205
  3     50.0000   1014.5106 159.1573840 +15.4214747     14332.97     825.5687     5215.286 -10.3908   0.0626     9.79   11.122
  0    799.6541    986.1000 159.0236455 +15.4265990     14204.41      813.183     5253.079 -10.3811   0.0622     3.29    1.094
  0    261.1071    987.8781 159.1197298 +15.4261303     9920.916     811.8716     5270.075  -9.9914   0.0889     4.44    1.267
  0    649.7887   1023.6172 159.0503727 +15.4201053     10136.01     803.5881     5253.545 -10.0147   0.0861     3.99    1.224
  0   1782.1843   1978.7032 158.8482194 +15.2560756     19904.24     990.4977     4982.778 -10.7474   0.0540     4.39    1.167
  0   1037.8907   2014.9440 158.9808948 +15.2497107     16199.63     854.2263     5082.467 -10.5238   0.0573     4.42    1.223
  0   1733.1005   2013.3921 158.8569648 +15.2501034     4298.736     331.7347     4992.033  -9.0834   0.0838     1.85    1.092
  0   1779.5455   2010.0891 158.8486858 +15.2506774     38332.32     1163.807     4982.685 -11.4589   0.0330     4.91    1.189
  0   1405.2977   1987.7405 158.9154047 +15.2544642     28721.22     922.2721     5050.901 -11.1455   0.0349     4.09    1.244
  0    544.1803   1509.7806 159.0690626 +15.3364607     4646.618     361.1841     5247.072  -9.1678   0.0844     1.00    1.138
  0   1658.7893   1829.7170 158.8702386 +15.2816825     35856.65     1031.121     5009.895 -11.3864   0.0312     4.19    1.250
  4   1034.5660   1749.7578 158.9815509 +15.2953180      2039116     1639.231     5162.207 -15.7736   0.0009     4.02    1.033
  0    954.8607   1422.4780 158.9958446 +15.3515868     38473.52     913.8953     5226.602 -11.4629   0.0258     3.47    1.038
  4   1374.5438   1767.5347 158.9209286 +15.2923308      2273050     1710.223     5089.782 -15.8915   0.0008     4.40    1.054
  0   1663.1776   1754.8157 158.8694671 +15.2945651     4480.412     361.0696     5027.362  -9.1283   0.0875     0.95    1.131
  0   1565.9241   1752.3116 158.8868080 +15.2949813     38482.61     935.7752     5061.071 -11.4632   0.0264     4.08    1.053
  0    972.6870   1965.1150 158.9925306 +15.2582652     76030.12      913.048     5111.408 -12.2025   0.0130     3.86    1.103
  0   1624.1722   1550.7947 158.8764528 +15.3296482      2958.26     309.6649     5089.715  -8.6776   0.1137     0.99    1.259
  0   1938.2863   1964.9929 158.8203929 +15.2584514     7909.257     777.2902     4935.057  -9.7453   0.1067     3.69    1.071
  0    498.1103   1933.7051 159.0771435 +15.2635379     4235.411     331.6872     5120.621  -9.0672   0.0850     0.81    1.077
  0    763.7923   1217.1952 159.0299792 +15.3868440     21189.28     931.1667     5249.426 -10.8153   0.0477     3.55    1.068
  0    493.9371   1218.2384 159.0781159 +15.3865868     88738.62     2052.351     5271.407 -12.3703   0.0251     7.72    1.154
  0    453.2838   1905.4331 159.0851441 +15.2683864      8052.34     741.8198     5125.794  -9.7648   0.1000     4.08    2.081
  0    143.5444   1640.4135 159.1404622 +15.3138622     23375.95     875.7822     5207.857 -10.9219   0.0407     4.07    1.077
  0    495.5483   1659.5854 159.0776877 +15.3106816     2437.077     286.6085     5189.924  -8.4672   0.1277     0.30    1.022
  0     73.5443   1904.5690 159.1528436 +15.2684063     2531.109     330.4066     5182.926  -8.5083   0.1418     0.44    1.039
  0   1503.0015   1607.5251 158.8980517 +15.3198725     3544.291     331.1685     5107.866  -8.8738   0.1015     0.00    1.445
  0    756.1930   1597.8152 159.0312280 +15.3213804     2833.625     298.4728     5221.296  -8.6309   0.1144     0.95    1.214
  0   1731.4922   1884.0253 158.8572690 +15.2723523     9370.949     777.7579     4993.665  -9.9295   0.0901     3.44    1.593
  0   1146.1267   1313.6615 158.9617563 +15.3703455     3940.454     331.4659      5225.75  -8.9889   0.0914     1.15    1.138
  0   1011.6386   1923.7261 158.9855967 +15.2653927     50719.89     848.4689     5133.771 -11.7629   0.0182     3.81    1.205
  0   1480.6082   1872.8080 158.9019991 +15.2742439     5372.901     674.1981     5052.728  -9.3255   0.1363     3.44    1.673
  0    909.4371   1864.5764 159.0038321 +15.2755409     2810.154     330.6166     5157.677  -8.6218   0.1278     0.32    1.023
  0    693.5009   1829.5544 159.0423405 +15.2815074     2542.747     286.7002      5166.24  -8.5133   0.1224     0.17    1.016
  0    510.1909   1834.7876 159.0750212 +15.2805539     2880.675      298.512     5143.461  -8.6487   0.1125     0.93    1.222
  0   1467.0939   1940.7035 158.9043967 +15.2625646     11513.98     942.9927     5049.329 -10.1531   0.0889     4.03    1.255
  0    909.8879   1367.1346 159.0038798 +15.3610941     74183.95     901.3907     5238.369 -12.1758   0.0132     3.40    1.063
  0    817.1181   1512.4004 159.0203868 +15.3360867     71000.12     2090.915     5227.819 -12.1281   0.0320     9.09    1.621
  0   1156.1703   1785.1411 158.9598607 +15.2892596      6827.61      699.277     5145.326  -9.5857   0.1112     2.54    1.210
  0   1204.0659   1746.7083 158.9513293 +15.2958795     3342.916     331.0172     5132.771  -8.8103   0.1075     0.83    1.078
  0   1141.6299   1754.0161 158.9624602 +15.2946095     331102.5     1078.373     5146.879 -13.7999   0.0035     3.53    1.047
  0    797.6819   1516.0658 159.0238520 +15.3354512     17302.56     965.7024     5228.005 -10.5953   0.0606     3.66    1.061
  0   1024.6284   1952.7947 158.9832740 +15.2603964     15084.73     1002.829     5121.002 -10.4463   0.0722     4.65    1.265
  0    105.9712   1710.4924 159.1471358 +15.3017962     30079.43     1090.173     5194.731 -11.1957   0.0394     4.32    1.161
  0   1900.0032   1435.5437 158.8272761 +15.3495049      28935.7     1080.591     5034.461 -11.1536   0.0406     4.31    1.124
  0    319.4416   1585.5398 159.1091157 +15.3233602     2018.465     286.2449      5203.42  -8.2626   0.1540     0.07    1.041
  0   1014.0660   1684.3018 158.9852219 +15.3065708     16703.59     576.2274     5170.954 -10.5570   0.0375     4.51    1.857
  4   1849.1964   1581.7925 158.8363202 +15.3243465      4021258     2198.464      5013.21 -16.5109   0.0006     5.58    1.143
  0    929.4847   1696.5651 159.0003007 +15.3044414     1957.245     286.1917     5179.925  -8.2291   0.1588     0.07    1.009
  0    235.9778   1598.8118 159.1239947 +15.3210494     7268.954     768.3573     5201.455  -9.6537   0.1148     5.01    1.256
  0   1019.4819   1684.5664 158.9842561 +15.3065265     22088.97     680.3378      5170.52 -10.8604   0.0334     4.69    1.617
  0    112.4307   1609.5771 159.1460219 +15.3191545     2305.585     286.4943      5210.93  -8.4070   0.1349     0.23    1.017
  0    887.9321   1620.2053 159.0077298 +15.3175639     33578.94     901.4081     5190.201 -11.3152   0.0292     3.39    1.054
  0   1742.6204   1642.7249 158.8553174 +15.3138539     7977.396     407.2256     5031.272  -9.7547   0.0554     1.60    1.312
  0   1000.5140   1632.5055 158.9876510 +15.3154758     7195.346     595.2183     5179.042  -9.6426   0.0898     1.53    1.006
  0   1287.1155   1606.2338 158.9365496 +15.3200558     424926.9     1127.061     5131.734 -14.0708   0.0029     3.52    1.039
  0   1900.1599   1229.6970 158.8272709 +15.3849078     11801.08     401.2365      5062.74 -10.1798   0.0369     0.87    1.153
  0   1629.6056   1597.3359 158.8754768 +15.3216445      60696.8     927.2269      5084.35 -11.9579   0.0166     3.78    1.025
  0   1553.1893   1538.1132 158.8891133 +15.3318184     4915.848     361.3695     5110.776  -9.2290   0.0798     1.23    1.157
  0    415.7184   1307.1989 159.0920392 +15.3712623     22856.14     1313.176     5276.405 -10.8975   0.0624     7.09    1.359
  0    400.5598   1314.3253 159.0947406 +15.3700318     172348.8     1011.537     5277.257 -13.0910   0.0064     3.32    1.021
  0    722.2361   1519.9364 159.0373056 +15.3347652      3759.81     341.3563     5228.694  -8.9379   0.0986     1.21    1.080
  0   1752.2036   1541.5728 158.8536219 +15.3312519      8241.42      390.481     5049.322  -9.7900   0.0515     0.79    1.180
  0    938.0508   1530.0186 158.9988154 +15.3330872     9052.084     773.3074      5206.19  -9.8919   0.0928     3.06    1.015
  0   1702.4049   1376.5886 158.8625257 +15.3596203     2742.554     286.8735     5076.872  -8.5954   0.1136     0.28    1.013
  0   1080.6765   1331.8558 158.9734263 +15.3672019     7960.413     675.1521       5234.4  -9.7523   0.0921     3.69    1.355
  0    248.6639   1369.5944 159.1218140 +15.3604759     753958.8     1228.068     5280.175 -14.6934   0.0018     3.44    1.031
  0     13.5724   1492.5775 159.1636961 +15.3392403     2373.765     286.5535      5186.78  -8.4386   0.1311     0.30    1.008
  0   1485.4349   1480.8837 158.9012061 +15.3416501     42281.65     979.0287     5139.582 -11.5654   0.0251     3.69    1.045
  0    922.9696   1456.3950 159.0015238 +15.3457457     11360.52     671.3998     5225.664 -10.1385   0.0642     3.25    1.205
  0   1101.3046   1403.7812 158.9697305 +15.3548363     28359.78     411.3744     5210.561 -11.1318   0.0158     0.89    1.076
  0    139.0758   1385.3850 159.1413539 +15.3577218     606299.8     1203.402     5279.381 -14.4567   0.0022     3.55    1.004
  0   1154.7856   1422.5825 158.9601878 +15.3516143     6399.485     718.1592     5195.829  -9.5154   0.1219     3.43    1.687
  0    309.1093   1383.4906 159.1110283 +15.3581064     3389.791     331.0524     5268.809  -8.8254   0.1061     1.17    1.450
  0   1658.4385   1416.5297 158.8703616 +15.3527449     3810.248     287.7978     5083.354  -8.9524   0.0820     0.09    1.011
  0    297.4431   1390.5497 159.1131065 +15.3568884     2831.013     286.9502     5266.792  -8.6299   0.1101     0.32    1.002
  0    542.2390   1382.3772 159.0694486 +15.3583718     27997.49     940.1848       5259.1 -11.1178   0.0365     3.40    1.151
  0   1751.4132   1401.5796 158.8537814 +15.3553287     18278.12     444.8986     5060.875 -10.6548   0.0264     0.52    1.252
  0   1669.2699   1614.4303 158.8684012 +15.3187102     3484.855     360.3831     5065.453  -8.8555   0.1123     1.15    1.430
  0    294.2258   1539.4119 159.1136284 +15.3312851     4334.942     494.9268     5215.777  -9.0925   0.1240     2.95    1.625
  0   1313.0884   1290.8394 158.9319804 +15.3743045     6709.133     380.7476     5189.769  -9.5667   0.0616     1.12    1.032
  0   1614.3151   1992.0590 158.8781431 +15.2537557     19422.37     934.3109     5018.821 -10.7208   0.0522     5.17    1.377
  0     56.0294   1069.8839 159.1562870 +15.4119535     27803.46     1248.312     5242.968 -11.1102   0.0488     4.04    1.125
  0    846.2283   1440.6322 159.0152145 +15.3484374     504466.2     1132.634     5238.133 -14.2571   0.0024     3.35    1.022
  0   1693.1847   1051.8219 158.8642162 +15.4154747     4386.777     310.8103     5097.652  -9.1054   0.0769     0.99    1.282
  0    443.0738   2024.7357 159.0869254 +15.2478650     3882.834     331.4227     5111.683  -8.9729   0.0927     0.81    1.068
  0   1237.8059   1375.0604 158.9453909 +15.3598047     57241.91     933.5521     5197.296 -11.8943   0.0177     3.55    1.029
  0   1734.2531   1363.5872 158.8568472 +15.3618606     11797.84     887.8128     5070.972 -10.1795   0.0817     3.79    1.033
  4   1768.6169   1328.4896 158.8507226 +15.3679014      1127116     1394.038     5067.533 -15.1299   0.0013     3.83    1.063
  0    756.8082   1337.4098 159.0311913 +15.3661667     4794.878     599.8624     5241.438  -9.2019   0.1359     3.14    1.652
  0    910.1898   1251.6558 159.0038557 +15.3809551     2909.845     287.0185     5244.415  -8.6597   0.1071     0.72    1.516
  0    843.5704   1235.5095 159.0157434 +15.3837151      41092.5      929.239     5247.131 -11.5344   0.0246     3.52    1.058
  0   1740.2979   1275.6106 158.8557808 +15.3769922     534757.3     1224.851     5085.674 -14.3204   0.0025     3.73    1.051
  0   1210.5631   1253.0123 158.9502759 +15.3807899     8221.014     728.1124     5224.125  -9.7873   0.0962     3.20    1.513
  0     10.3866   1258.2104 159.1643560 +15.3795469     21836.03     675.2698     5208.903 -10.8479   0.0336     3.83    1.043
  0   1481.1500   1257.8207 158.9020088 +15.3800133     3373.208     309.9981     5147.271  -8.8201   0.0998     1.01    1.250
  0   1724.9548   1225.1884 158.8585245 +15.3856622     13307.53     1035.483     5094.194 -10.3102   0.0845     5.78    1.706
  0   1802.3103   1233.1467 158.8447248 +15.3843033       101013     966.3137     5077.141 -12.5109   0.0104     3.80    1.077
  0   1224.7919   1203.4465 158.9477483 +15.3893175     153383.9     955.3047     5230.051 -12.9644   0.0068     3.41    1.033
  0    676.0063   1898.6826 159.0454394 +15.2696135     12059.16     837.0576     5151.499 -10.2033   0.0754     4.12    1.092
  0    765.2042   1599.7999 159.0296206 +15.3210414     3552.413     350.9491     5220.521  -8.8763   0.1073     0.95    1.272
  4     56.9189   1166.6461 159.1560911 +15.3953120      6539850     2831.104     5268.134 -17.0389   0.0005     6.32    1.024
  0   1435.8105   1154.1888 158.9101149 +15.3978290     6369.984     689.3998     5163.028  -9.5103   0.1175     3.90    1.349
  0   1475.7991   1159.6040 158.9029803 +15.3969045     6507.024      699.163     5150.794  -9.5335   0.1167     3.43    1.661
  0    928.4900   1088.4915 159.0006330 +15.4090218     4751.078     594.1959     5256.198  -9.1920   0.1358     1.29    1.010
  0   1905.9957   1076.4364 158.8262468 +15.4112673     581231.4     1231.518     5062.088 -14.4109   0.0023     3.81    1.070
  0   1840.9376   1119.2567 158.8378481 +15.4038955     852965.8     1295.688     5082.706 -14.8273   0.0016     3.75    1.093
  0   1740.9240   1126.6682 158.8556891 +15.4026085     4221.845     396.5097     5095.478  -9.0638   0.1020     1.23    1.144
  0    436.1927   1146.0144 159.0884401 +15.3989904     6737.457     380.7661     5283.289  -9.5712   0.0614     1.19    1.058
  0   1798.8618   1120.8837 158.8453541 +15.4036107     230005.1     1054.794     5090.391 -13.4043   0.0050     3.74    1.093
  0   1709.9967   1102.8101 158.8612097 +15.4067077     52349.44     1076.611     5098.382 -11.7973   0.0223     3.75    1.083
  0    155.9010   1088.8507 159.1384627 +15.4087277     4713.562     361.2302     5290.359  -9.1834   0.0832     1.03    1.156
  0   1503.3613   1107.8094 158.8980723 +15.4058170     4291.327     341.7434     5144.897  -9.0815   0.0865     1.22    1.110
  0   1270.9640   1084.1320 158.9395363 +15.4098473      15168.7     1071.139     5209.107 -10.4524   0.0767     6.45    1.418
  0   1896.5770   1042.4873 158.8279309 +15.4171051      2374.35      286.554     5059.068  -8.4389   0.1311     0.34    1.023
  0    627.0813   1956.8152 159.0541443 +15.2596016     4604.348      361.155     5116.482  -9.1579   0.0852     1.11    1.219
  0   1040.7957   1476.1851 158.9805053 +15.3423702     5786.698     654.0425     5200.489  -9.4061   0.1227     3.89    1.366
  0   1557.9502   1388.7720 158.8882884 +15.3575038       694868     1224.331     5123.046 -14.6048   0.0019     3.59    1.051
  0    161.4353   1752.6000 159.1372306 +15.2945742     35682.31     781.8268     5178.429 -11.3811   0.0238     3.95    1.127
  0    401.2599   1985.0155 159.0943924 +15.2546830      5029.24     342.2801     5118.691  -9.2538   0.0739     1.40    1.141
  0    340.7953   1628.8621 159.1052929 +15.3159164     19871.79     938.0323     5187.685 -10.7456   0.0513     4.60    1.221
  0   1370.9000   1937.4167 158.9215462 +15.2631129     597745.9     1272.507     5067.017 -14.4413   0.0023     3.91    1.110
  0    512.0991   1548.6587 159.0747716 +15.3297645     15001.35      845.942     5234.104 -10.4403   0.0612     4.07    1.221
