#   1 FLAGS                  Extraction flags                                          
#   2 X_IMAGE                Object position along x                                    [pixel]
#   3 Y_IMAGE                Object position along y                                    [pixel]
#   4 ALPHA_J2000            Right ascension of barycenter (J2000)                      [deg]
#   5 DELTA_J2000            Declination of barycenter (J2000)                          [deg]
#   6 FLUX_AUTO              Flux within a Kron-like elliptical aperture                [count]
#   7 FLUXERR_AUTO           RMS error for AUTO flux                                    [count]
#   8 BACKGROUND             Background at centroid position                            [count]
#   9 MAG_AUTO               Kron-like elliptical aperture magnitude                    [mag]
#  10 MAGERR_AUTO            RMS error for AUTO magnitude                               [mag]
#  11 FWHM_IMAGE             FWHM assuming a gaussian core                              [pixel]
#  12 ELONGATION             A_IMAGE/B_IMAGE                                           
  2    235.3518     35.9178 159.1246598 +15.5898307     293739.8      1228.51     4921.609 -13.6699   0.0045     4.15    1.030
  2    246.4849     20.7907 159.1226777 +15.5924361      1141681     1290.878     4919.172 -15.1439   0.0012     4.17    1.101
  0   1218.7809     22.2279 158.9490797 +15.5924639     19848.19     617.7612     4981.847 -10.7443   0.0338     3.66    1.072
  3     50.2952     64.4521 159.1576887 +15.5848555     31002.54     1266.424     4858.919 -11.2285   0.0444    10.59   11.295
  0     50.3230     47.6144 159.1576903 +15.5877511     330370.7     692.6697     4837.005 -13.7975   0.0023     5.25    2.166
  0    881.4115     66.9916 159.0093029 +15.5846858     903214.2      1218.92     5047.734 -14.8895   0.0015     3.57    1.003
  0     50.2584     37.6042 159.1577058 +15.5894726     19100.05     803.7355     4823.309 -10.7026   0.0457     1.42    1.137
  0   2003.7975     50.1951 158.8089168 +15.5877770     16141.08     752.1049     4909.128 -10.5198   0.0506     3.45    2.869
  0   1592.7042     42.9919 158.8823144 +15.5889626     25876.33     1322.016      4934.49 -11.0323   0.0555     7.11    1.447
  0   1998.5066     35.5139 158.8098630 +15.5903013     11796.47     667.2442     4912.838 -10.1794   0.0614     0.63    1.009
  0    684.6608     52.7321 159.0444346 +15.5870838     19570.91     800.3702     5034.269 -10.7290   0.0444     3.74    1.082
  0    546.5149     46.1906 159.0691011 +15.5881673     9685.371     804.3256     5023.321  -9.9653   0.0902     2.79    1.295
  0    339.9965     69.0266 159.1059649 +15.5841732     51981.98     778.4752     4983.848 -11.7896   0.0163     3.96    1.102
  3     50.0000     77.5178 159.1577362 +15.5826085     7843.564     501.7354     4878.094  -9.7363   0.0695     6.09    9.297
  3     50.0000     86.4820 159.1577327 +15.5810668     5887.057     564.2311     4889.051  -9.4247   0.1041     7.00    3.954
  0   1386.4978     71.5642 158.9191251 +15.5840131     2550.585     262.4131     4981.266  -8.5166   0.1117     0.41    1.023
  0   1711.7235     77.5116 158.8610595 +15.5830440     13575.95      961.704     4914.823 -10.3319   0.0769     6.00    1.035
  0    491.4569     73.5016 159.0789222 +15.5834533     2088.371     261.9746     5022.476  -8.2995   0.1362     0.31    1.018
  0   2001.5051     74.4846 158.8093235 +15.5835997     11011.71     662.7155     4919.041 -10.1046   0.0654     2.92    1.016
  3     50.1142     92.9859 159.1577097 +15.5799484     6864.085     574.5504     4898.638  -9.5915   0.0909     7.25    3.883
  0    857.8704    102.7732 159.0134961 +15.5785261       102050     776.3826     5059.138 -12.5220   0.0083     3.39    1.036
  0   1964.9813     85.7590 158.8158431 +15.5816570     14913.56     701.3036     4934.296 -10.4340   0.0511     3.23    1.657
  3     50.0000    101.4818 159.1577267 +15.5784873     4754.611     543.3809     4904.688  -9.1928   0.1241     6.92    3.399
  3     50.0000    108.5095 159.1577240 +15.5772787     9439.175     683.0612     4905.832  -9.9373   0.0786     8.55    4.765
  0    294.2112     93.2750 159.1141305 +15.5799874     5203.628     331.0725     4982.163  -9.2908   0.0691     1.87    1.094
  3     50.1301    207.0897 159.1576618 +15.5603257     50588.27     1116.894     4922.814 -11.7601   0.0240    14.41   17.547
  3     50.2188    120.0241 159.1576804 +15.5752986     12168.94     551.8914     4907.404 -10.2131   0.0493     7.00    4.568
  0    773.4636    102.5181 159.0285655 +15.5785471     2671.612     262.5278     5053.753  -8.5669   0.1067     0.26    1.017
  0   1071.1998    115.4033 158.9754068 +15.5764072      19969.6     617.8101     5038.041 -10.7509   0.0336     3.83    1.074
  3     50.1883    138.4455 159.1576785 +15.5721306      18583.7     694.5411     4909.977 -10.6728   0.0406     8.87    7.116
  0    116.2206    117.7650 159.1458981 +15.5757120      4285.67     330.3821     4921.205  -9.0800   0.0837     1.60    1.092
  0   1553.0779    143.4244 158.8893721 +15.5716844     97805.79     977.5043     4957.286 -12.4759   0.0109     3.78    1.018
  0   1352.0516    144.6370 158.9252603 +15.5714399     90693.98     934.4086     5010.026 -12.3939   0.0112     3.54    1.065
  0    376.7316    132.7676 159.0993842 +15.5732238     3898.629     370.3012     4997.324  -8.9773   0.1032     2.25    1.291
  0    480.1747    145.7578 159.0809126 +15.5710236     29130.01     1257.126     5029.474 -11.1609   0.0469     6.79    1.424
  3     50.0000    149.0170 159.1577080 +15.5703126     4215.632      494.268     4911.548  -9.0622   0.1273     6.33    2.596
  3     50.1879    171.9861 159.1576653 +15.5663626     11707.04     687.9924     4915.547 -10.1711   0.0638     8.84    6.963
  3     50.0000    155.9053 159.1577052 +15.5691280     6739.228     564.6067     4912.549  -9.5715   0.0910     7.10    3.359
  0     34.5999    169.2727 159.1604492 +15.5668233     82549.83     1194.445      4910.07 -12.2918   0.0157     4.58    1.196
  0   2027.0201    165.0795 158.8047591 +15.5680223     65547.95     942.7472     4924.596 -12.0414   0.0156     4.37    1.071
  3     50.0000    162.9968 159.1577024 +15.5679084     4470.348     446.5047     4913.679  -9.1259   0.1085     5.86    3.417
  0   1339.2321    168.0986 158.9275442 +15.5674026     31526.48     918.5222     5016.562 -11.2467   0.0316     3.52    1.015
  0   1126.3954    163.1814 158.9655415 +15.5682034     7690.905     349.4449     5038.967  -9.7149   0.0493     1.62    1.197
  3     50.0000    180.4968 159.1576955 +15.5648989     11304.37     605.0728     4917.208 -10.1331   0.0581     5.90    2.493
  0    773.5025    185.7935 159.0285346 +15.5642259     36344.16     405.6234      5063.51 -11.4011   0.0121     1.48    1.016
  0     64.4746    192.5099 159.1551068 +15.5628385     2813.867     369.5718     4928.147  -8.6233   0.1426     0.26    1.004
  0    974.3143    210.8386 158.9926793 +15.5599715     5837.738     314.1007     5052.837  -9.4156   0.0584     1.51    1.131
  0   1355.5919    252.6277 158.9246066 +15.5528690     808043.7     1175.624     5022.523 -14.7686   0.0016     3.49    1.019
  3     50.2014    327.9660 159.1576014 +15.5395383     41150.36     1025.303     4970.188 -11.5359   0.0271    13.15   14.149
  0   1476.2078    215.9987 158.9030822 +15.5591905     8021.775     718.7219     4995.683  -9.7607   0.0973     3.83    1.622
  0   1734.4836    216.5047 158.8569759 +15.5591441     2935.914     262.7781     4900.437  -8.6694   0.0972     0.18    1.005
  0   1533.0164    243.9056 158.8929361 +15.5544010     101605.6      955.167     4983.575 -12.5173   0.0102     3.53    1.027
  3     50.1186    250.7199 159.1576466 +15.5528225     13393.58     716.6597     4932.666 -10.3172   0.0581     7.17    4.211
  3     50.1862    272.8857 159.1576258 +15.5490106     11262.47     711.9749     4937.839 -10.1291   0.0687     9.19    6.537
  2     50.0807    295.8941 159.1576356 +15.5450538     29194.41     1409.237     4946.733 -11.1632   0.0524    18.32    2.475
  0    690.6401    267.3542 159.0433027 +15.5501762     274808.2     964.8434     5065.829 -13.5976   0.0038     3.41    1.026
  3     50.0000    258.4853 159.1576647 +15.5514870     4014.673     532.5687     4934.312  -9.0091   0.1441     6.40    2.614
  0   1437.7992    255.6900 158.9099312 +15.5523578     12675.55     894.7114     5008.259 -10.2574   0.0767     5.19    1.526
  0    814.4736    252.5387 159.0212017 +15.5527588     1570.715     301.5024      5068.02  -7.9902   0.2085     0.52    1.003
  3     50.0000    262.9932 159.1576630 +15.5507118     4515.081     458.9706     4935.488  -9.1367   0.1104     5.67    2.727
  0    949.0779    261.8922 158.9971710 +15.5511854     14270.02     697.0466     5060.807 -10.3861   0.0530     3.31    1.015
  0   1565.3137    259.0696 158.8871681 +15.5517985       6935.2     678.0075      4969.67  -9.6026   0.1062     5.26    1.390
  0    158.4446    261.5308 159.1383055 +15.5510037     2010.298     261.9004     4997.016  -8.2582   0.1415     0.39    1.013
  3     50.0000    285.0397 159.1576543 +15.5469204     6618.428     421.7874     4940.661  -9.5519   0.0692     5.47    3.827
  0   1381.2870    277.9998 158.9200148 +15.5485106     5609.484     660.6846     5022.182  -9.3723   0.1279     4.18    1.106
  0   1454.4939    276.5205 158.9069472 +15.5487785      2554.28     262.4166      5009.73  -8.5182   0.1116     0.01    1.001
  0   1759.4929    280.7889 158.8525024 +15.5480924     4012.281     303.5101     4899.769  -9.0085   0.0822     1.35    1.392
  0   1698.8174    299.0989 158.8633305 +15.5449351     13167.77     952.7715     4913.749 -10.2988   0.0786     5.97    1.720
  0   1385.5177    299.8716 158.9192553 +15.5447500     3902.147     303.4199     5024.417  -8.9783   0.0844     1.56    1.448
  0   1274.0184    320.4837 158.9391539 +15.5411833     10422.31     719.5523     5038.852 -10.0449   0.0750     3.76    1.624
  0   1708.7782    349.3215 158.8615451 +15.5362995     78385.35     1001.089     4945.905 -12.2356   0.0139     3.77    1.123
  3     50.1834    360.3371 159.1575918 +15.5339714     20620.56     1079.329     4994.578 -10.7858   0.0568     7.00    4.940
  0   1312.4030    356.8236 158.9322947 +15.5349416     28930.77     673.6017     5045.351 -11.1534   0.0253     3.71    1.039
  3     50.3334    407.0307 159.1575466 +15.5259414     25865.16     819.6872     5035.295 -11.0318   0.0344    10.27   13.856
  0   1252.4818    350.5246 158.9429917 +15.5360127     3024.287     262.8618     5044.951  -8.7016   0.0944     0.18    1.009
  0    726.7154    364.4173 159.0368345 +15.5334943     26144.61     802.4107     5086.159 -11.0435   0.0333     3.36    1.008
  3     50.2619    367.8807 159.1575748 +15.5326741     8441.396      435.978     5001.508  -9.8160   0.0561     5.56    3.282
  0    498.2631    366.4320 159.0776109 +15.5330793     10957.31     382.4492     5065.396 -10.0993   0.0379     1.53    1.144
  2     50.0000    379.6271 159.1576169 +15.5306540      8441.06     513.1286     5011.904  -9.8160   0.0660     6.55    3.412
  0    862.9185    388.6110 159.0125165 +15.5293709     4581.449     303.9763     5079.306  -9.1525   0.0721     1.62    1.209
  3     50.0000    427.0033 159.1575982 +15.5225066     13615.75     655.1504     5050.011 -10.3351   0.0523     8.22    4.337
  0    889.5945    395.9012 159.0077532 +15.5281241     5941.278     348.1972     5079.501  -9.4347   0.0636     1.63    1.171
  0    659.2393    419.9328 159.0488616 +15.5239276     202639.4     934.0703     5091.111 -13.2668   0.0050     3.32    1.062
  0    778.6858    425.6114 159.0275406 +15.5229851     438941.3      1042.02     5094.027 -14.1060   0.0026     3.30    1.027
  0   1216.4740    396.4779 158.9494088 +15.5281023     2290.935     262.1668     5059.544  -8.4000   0.1243     0.74    1.022
  0   1379.4587    399.5285 158.9203172 +15.5276105     2434.733     262.3033     5045.228  -8.4661   0.1170     0.39    1.008
  0    288.2664    406.4850 159.1150793 +15.5261217     9962.926     636.2972     5065.513  -9.9960   0.0694     3.81    1.022
  0   1418.5138    408.5370 158.9133446 +15.5260686     1765.619     261.6679      5042.52  -8.1172   0.1609     0.32    1.005
  0   1221.4568    409.5425 158.9485165 +15.5258566     3155.022     262.9854     5063.184  -8.7475   0.0905     0.30    1.004
  0    889.9766    412.5303 159.0076805 +15.5252645     5232.834     611.8477     5083.646  -9.2968   0.1270     3.22    1.592
  3     50.0000    436.9814 159.1575943 +15.5207906     4228.036     685.2829     5056.064  -9.0653   0.1760     8.70    4.807
  0    102.4872    423.0842 159.1482317 +15.5232003     11535.79     881.7091     5079.649 -10.1551   0.0830     4.64    1.114
  3     50.0000    448.4496 159.1575897 +15.5188184     8625.361     594.5712     5062.723  -9.8394   0.0749     8.14    5.773
  0   1012.4455    424.4321 158.9858185 +15.5232485    -5120.104     541.1998     5075.511  99.0000  99.0000     0.76    1.013
  0   1024.8409    431.6162 158.9836043 +15.5220160     5885.962     331.5848     5076.851  -9.4245   0.0612     1.75    1.127
  0   1877.5176    432.5522 158.8314157 +15.5220081     5705.059     371.5127     4954.731  -9.3907   0.0707     1.98    1.379
  0   1109.4712    428.5768 158.9684999 +15.5225585     2017.896     261.9076      5071.62  -8.2622   0.1410     0.47    1.027
  3     50.1920    457.6309 159.1575519 +15.5172395     3010.493     629.1125     5068.775  -8.6966   0.2269     8.08    4.646
  3     50.0000    467.5493 159.1575822 +15.5155338     6841.597     621.6296     5074.829  -9.5879   0.0987     8.37    6.581
  0   1860.6113    444.6225 158.8344316 +15.5199303     7263.257     357.1157      4962.32  -9.6528   0.0534     1.84    1.181
  0   1955.9774    449.0179 158.8174102 +15.5191853     8240.821     726.5917     4948.798  -9.7899   0.0958     3.06    1.058
  3     50.0000    477.9892 159.1575781 +15.5137384     4559.308     643.0016     5080.881  -9.1472   0.1532     8.09    3.775
  4   1327.3098    509.0678 158.9296028 +15.5087626      1727952     1466.135     5077.023 -15.5938   0.0009     3.84    1.050
  0    167.4305    496.5428 159.1366128 +15.5105913     538009.5      1096.67      5128.36 -14.3270   0.0022     3.56    1.051
  3     50.0000    486.0011 159.1575749 +15.5123605     3993.029     494.1559     5084.331  -9.0033   0.1344     6.29    2.607
  3     50.0000    491.4910 159.1575728 +15.5114164     4179.742     499.9156     5085.964  -9.0529   0.1299     6.28    2.480
  0    975.3131    484.6859 158.9924306 +15.5128773     3790.779     274.0626     5089.204  -8.9468   0.0785     1.36    1.260
  3     50.0000    496.4800 159.1575708 +15.5105585     3844.378     553.2406     5087.597  -8.9621   0.1563     7.18    4.338
  0    902.6507    486.7905 159.0053984 +15.5124970     9015.555     814.5577     5095.092  -9.8875   0.0981     4.91    1.169
  0    736.4600    484.5182 159.0350600 +15.5128429     4753.475     543.3804     5098.458  -9.1925   0.1241     0.53    1.023
  3     50.0000    505.0215 159.1575674 +15.5090896     5553.496     517.2011     5090.537  -9.3614   0.1011     6.93    4.616
  3     50.0000    513.9966 159.1575639 +15.5075461     12304.79     679.9747     5093.477 -10.2252   0.0600     8.44    4.482
  0   1784.4714    502.6754 158.8480132 +15.5099371      9711.91     738.6239     4993.352  -9.9683   0.0826     4.12    1.051
  0   1569.4783    502.5483 158.8863836 +15.5099273     2482.598     369.3487     5040.996  -8.4873   0.1616     0.17    1.010
  3     50.1247    527.4818 159.1575363 +15.5052271     9597.836     594.9779     5097.723  -9.9554   0.0673     6.11    3.255
  4    930.8345    555.4956 159.0003502 +15.5006887      1023888     1215.817     5109.814 -15.0256   0.0013     3.40    1.015
  3     50.0000    534.5036 159.1575558 +15.5040194     8372.056      603.866     5100.336  -9.8071   0.0783     6.78    2.951
  3     50.0000    543.5428 159.1575522 +15.5024650     8991.984     555.5504     5103.276  -9.8846   0.0671     6.88    3.014
  0    563.4374    524.4918 159.0659275 +15.5059175     1921.083     261.8157     5106.117  -8.2089   0.1480     0.41    1.013
  3     50.0000    552.5329 159.1575487 +15.5009189     7357.865     745.4256     5106.595  -9.6669   0.1100     9.51    5.676
  3     50.0000    565.5602 159.1575435 +15.4986786     10630.78     658.3081     5111.457 -10.0664   0.0673     8.79    7.689
  0   1422.2052    551.6548 158.9126585 +15.5014568      8663.52     768.1828     5075.421  -9.8442   0.0963     3.28    1.122
  3     50.0000    577.9962 159.1575386 +15.4965399     7522.918     734.0596     5115.944  -9.6910   0.1060     9.17    5.209
  0   1761.4081    559.7029 158.8521214 +15.5001268     6945.181     340.7464     5023.382  -9.6042   0.0533     1.12    1.159
  0   1204.7747    578.9957 158.9514563 +15.4967115     149953.8     859.7996     5094.959 -12.9399   0.0062     3.29    1.042
  0   1650.4609    559.5344 158.8719215 +15.5001399     3252.905      263.078      5038.06  -8.7807   0.0878     0.29    1.003
  3     50.0000    585.5076 159.1575357 +15.4952481     11174.48     667.0123     5118.936 -10.1206   0.0648     8.42    5.356
  0     74.9337    595.4006 159.1530822 +15.4935563      96883.3     1977.926     5137.931 -12.4656   0.0222     5.84    1.063
  3     50.0834    624.6683 159.1575053 +15.4885136     24748.86     1001.827     5135.706 -10.9839   0.0440    10.57    9.487
  0    880.5364    576.0342 159.0093211 +15.4971437     3165.516     283.6051     5112.821  -8.7511   0.0973     2.47    2.242
  3     50.0000    595.9781 159.1575315 +15.4934475     5730.775      511.813     5122.676  -9.3955   0.0970     6.41    3.398
  0     25.4166    587.5588 159.1619219 +15.4948860     1907.489     261.8028     5104.832  -8.2012   0.1491     0.37    1.021
  3     50.0000    600.0144 159.1575299 +15.4927534     7383.443     621.8464     5124.172  -9.6706   0.0915     7.24    3.293
  3     50.0000    609.9828 159.1575260 +15.4910391     8204.053     710.9055     5128.048  -9.7851   0.0941     8.28    4.124
  0   1690.7976    607.3653 158.8647156 +15.4919202     5683.404     616.6153     5049.151  -9.3865   0.1178     2.61    1.127
  0    885.4849    619.5710 159.0084262 +15.4896578     22741.57     913.0606     5123.576 -10.8921   0.0436     3.63    1.143
  0     56.5042    609.4808 159.1563655 +15.4911279     8105.177      622.135     5132.349  -9.7719   0.0834     0.28    1.036
  3     50.1542    651.8096 159.1574820 +15.4838461     15537.27     917.2572      5149.49 -10.4784   0.0641     8.33    5.455
  2     50.1927    639.5920 159.1574799 +15.4859472     15945.71     898.7592     5143.364 -10.5066   0.0612     5.50    2.723
  2    529.1167    647.7960 159.0720128 +15.4847019      11528.9     903.7898     5140.382 -10.1545   0.0851     4.99    1.607
  3     50.0000    690.9622 159.1574941 +15.4771129     17435.47     737.4111      5170.67 -10.6036   0.0459     9.19    6.233
  3     50.0000    664.0026 159.1575047 +15.4817492     5551.074     660.6625     5155.616  -9.3609   0.1293     8.22    3.991
  0   1084.4702    650.9451 158.9729086 +15.4843112     4132.909     370.4586     5134.527  -9.0406   0.0973     1.48    1.497
  3     50.0000    674.5795 159.1575005 +15.4799302     16990.78      660.707     5161.373 -10.5755   0.0422     8.27    5.528
  0    710.9749    689.6793 159.0395477 +15.4775534     48827.59     728.8552      5148.46 -11.7217   0.0162     3.33    1.012
  3     50.0000    708.0103 159.1574873 +15.4741811     11703.59     765.4963     5180.548 -10.1708   0.0710     9.60    6.813
  0    139.9643    699.4589 159.1414373 +15.4756853     76347.37      1923.33      5224.05 -12.2070   0.0274     9.01    1.750
  0    241.1819    691.5540 159.1233788 +15.4770811      20814.5     653.5831     5218.691 -10.7959   0.0341     3.68    1.058
  0   1267.2693    697.4156 158.9402781 +15.4763596     15285.62     799.0372     5134.847 -10.4607   0.0568     3.91    1.178
  0   1259.4066    694.4970 158.9416817 +15.4768599      8190.56      706.928     5135.684  -9.7833   0.0937     3.31    1.019
  3     50.0000    718.9922 159.1574830 +15.4722925      7789.96     686.5746      5186.94  -9.7288   0.0957     8.44    4.461
  0   2005.4865    697.5206 158.8085480 +15.4764546     2606.121     262.4657     5027.726  -8.5400   0.1094     0.31    1.003
  0    116.8614    715.6610 159.1455536 +15.4728904      12960.9     776.8578     5225.586 -10.2816   0.0651     4.40    1.256
  3     50.0000    727.4448 159.1574797 +15.4708388     7279.081     603.4156     5191.589  -9.6552   0.0900     7.43    3.794
  0   1771.1382    716.6918 158.8503632 +15.4731302     8245.769     702.9524     5062.517  -9.7906   0.0926     4.72    1.384
  3     50.0000    736.5035 159.1574761 +15.4692810     7541.495     674.0647       5197.4  -9.6936   0.0971     8.53    4.406
  0   1725.4395    719.9291 158.8585172 +15.4725672     5012.871     313.4467      5074.27  -9.2502   0.0679     1.29    1.048
  0   1380.2615    738.8152 158.9201071 +15.4692623     40229.63     1429.032     5118.573 -11.5114   0.0386     5.56    1.252
  3     50.0000    755.5022 159.1574686 +15.4660137     9956.821     783.1212     5199.865  -9.9953   0.0854     8.87    6.171
  3     50.0000    747.0126 159.1574719 +15.4674737     5862.459     607.4852     5198.697  -9.4202   0.1125     7.61    3.282
  0   1440.4294    736.5809 158.9093713 +15.4696577     2471.244     262.3379     5106.036  -8.4823   0.1153     0.49    1.031
  0    243.9761    750.4507 159.1228586 +15.4669534     30778.18     807.3419      5246.15 -11.2206   0.0285     3.40    1.113
  3     50.0000    770.9997 159.1574625 +15.4633486     16094.38     766.9218     5201.811 -10.5167   0.0517     9.59    6.597
  0    174.9587    745.9394 159.1351754 +15.4677046      5865.97     598.1427     5246.289  -9.4208   0.1107     4.02    1.677
  3     50.0000    791.6642 159.1574543 +15.4597949     24048.47     739.6385     5204.536 -10.9527   0.0334    10.06    8.959
  0   1183.4640    771.9382 158.9552158 +15.4635259      3518.73     370.0459     5174.685  -8.8660   0.1142     1.50    1.491
  3     50.0000    807.4802 159.1574481 +15.4570750        10963     757.8594     5206.049 -10.0998   0.0751     8.14    6.172
  3     50.2747    838.3352 159.1573869 +15.4517689     35851.72     1469.095     5207.835 -11.3863   0.0445    10.08    9.510
  0   1779.9727    788.1540 158.8487769 +15.4608418     19651.15     678.5189     5067.955 -10.7335   0.0375     3.97    1.173
  0    379.5272    794.4473 159.0986564 +15.4594336     25020.62     815.9867     5233.927 -10.9957   0.0354     3.48    1.051
  0    870.4779    784.4989 159.0110593 +15.4612906     3534.161     263.3438     5196.235  -8.8707   0.0809     0.24    1.005
  0    252.0440    794.2747 159.1214031 +15.4594198     10706.81     396.7468     5254.834 -10.0742   0.0402     2.49    1.521
  0   1732.4601    789.4315 158.8572544 +15.4606156     2113.649     261.9986     5078.694  -8.3126   0.1346     0.76    1.024
  0   1268.4764    793.5011 158.9400422 +15.4598357     4866.486     563.7809     5163.366  -9.2180   0.1258     4.28    2.096
  2     50.0000    819.4800 159.1574434 +15.4550113     17057.37     880.0712      5206.74 -10.5798   0.0560     6.87    3.538
  0    679.2496    812.2267 159.0451720 +15.4564693     4963.702     330.8922     5184.903  -9.2395   0.0724     1.86    1.101
  0   1588.4913    849.9719 158.8829327 +15.4501827     262347.9     949.8384     5100.261 -13.5472   0.0039     3.43    1.080
  0   1391.0941    830.8970 158.9181562 +15.4534287     5801.184     348.0971     5137.087  -9.4088   0.0652     1.50    1.018
  3     50.0000    855.4990 159.1574291 +15.4488171      19440.6     749.4469     5208.814 -10.7218   0.0419     7.81    5.669
  3     50.0000    870.0011 159.1574234 +15.4463231     14344.08      697.073     5209.565 -10.3917   0.0528     8.38    5.644
  0   1229.1133    833.9182 158.9470568 +15.4528768     5074.573     330.9756     5178.965  -9.2635   0.0708     1.60    1.258
  0   1400.6553    853.8417 158.9164458 +15.4494846     24027.36     1118.541     5141.096 -10.9518   0.0506     5.15    1.116
  0    897.2519    841.6053 159.0062667 +15.4514768     2050.541     272.4784     5223.078  -8.2797   0.1443     0.94    1.356
  3     50.1949    883.4108 159.1573834 +15.4440171      18235.8     988.8815     5210.022 -10.6523   0.0589     8.39    6.755
  0    611.2497    867.9471 159.0572876 +15.4468669     80231.39     801.6287     5226.484 -12.2609   0.0109     3.22    1.034
  0    241.0375    858.6924 159.1233434 +15.4483378     8933.534     350.3284     5273.872  -9.8776   0.0426     1.35    1.046
  0    433.2549    873.7222 159.0890431 +15.4458182       7874.6     324.5077      5246.77  -9.7406   0.0448     1.22    1.069
  3    949.8547    888.2267 158.9968690 +15.4434726     35503.87     601.0446     5237.517 -11.3757   0.0184     7.34    2.878
  3    955.0636    894.4859 158.9959380 +15.4423974     45171.29     614.2716     5238.058 -11.6372   0.0148     5.05    2.317
  3     50.0000    898.0099 159.1574124 +15.4415064     16640.06       950.72     5210.549 -10.5529   0.0620     7.66    3.673
  3     50.1249    906.7025 159.1573867 +15.4400115     11811.04     1110.762     5210.865 -10.1807   0.1021     8.26    7.079
  0     96.2355    892.1409 159.1491657 +15.4425331     10087.99     835.3644     5263.596 -10.0095   0.0899     5.61    1.781
  0   1966.6779    894.1690 158.8154515 +15.4426323     19792.69     831.5026      5049.66 -10.7413   0.0456     3.98    1.249
  0    919.1257    887.5304 159.0023517 +15.4435845     3533.437     303.1174     5239.911  -8.8705   0.0932     1.39    1.428
  3     50.0629    916.4465 159.1573939 +15.4383358     7887.689     549.9583     5211.181  -9.7424   0.0757     6.78    7.495
  0    800.0319    914.9072 159.0235922 +15.4388450     101581.2     822.0468     5251.129 -12.5170   0.0088     3.15    1.028
  0   1562.4839    895.5267 158.8875652 +15.4423443     2189.045     302.0121      5110.87  -8.3506   0.1498     0.07    1.029
  3     50.0000    942.5235 159.1573948 +15.4338512     19030.13     778.7988     5215.193 -10.6986   0.0444     9.70    7.017
  0   1678.7867    904.6841 158.8668137 +15.4407876     7378.846      639.704     5089.184  -9.6700   0.0942     3.83    1.542
  0    137.3975    900.1306 159.1418188 +15.4411743     10654.35     865.3376     5271.666 -10.0688   0.0882     5.29    1.418
  3     50.0000    927.4968 159.1574007 +15.4364354     16540.24     806.4427     5211.567 -10.5464   0.0529     8.60    5.177
  0    949.1841    911.6655 158.9969826 +15.4394415     21786.31     1009.496     5242.121 -10.8455   0.0503     3.78    1.220
  0   1456.3457    910.1101 158.9064991 +15.4398181     3422.974     303.0268     5137.938  -8.8360   0.0961     1.57    1.137
  0    524.4673    912.0162 159.0727569 +15.4392617     3897.662     303.4162     5247.809  -8.9770   0.0845     1.54    1.489
  0   1366.4517    913.0466 158.9225367 +15.4392965     6082.928     314.2948     5158.836  -9.4603   0.0561     1.64    1.038
  0     95.4256    919.8654 159.1492994 +15.4377649     11327.39     658.5713     5265.868 -10.1353   0.0631     4.15    1.219
  0   1089.5956    923.5452 158.9719286 +15.4374324     18420.37     893.1595     5235.586 -10.6632   0.0527     3.57    1.062
  0   1000.4572    914.5593 158.9878341 +15.4389566     2374.864     272.7744     5237.679  -8.4391   0.1247     0.36    1.011
  0   1791.4178    930.5397 158.8467154 +15.4363568     2334.145     262.2078     5078.328  -8.4203   0.1220     0.46    1.011
  0    909.5292    934.5770 159.0040514 +15.4354913     2237.425     337.2921     5252.533  -8.3744   0.1637     0.56    1.023
  3     50.0000    957.5060 159.1573889 +15.4312747      7318.88     690.4948     5219.003  -9.6611   0.1025     8.65    4.482
  0   1080.4503    941.5767 158.9735559 +15.4343294     2106.481     261.9918      5238.25  -8.3089   0.1351     0.38    1.022
  3     50.0000    967.0228 159.1573852 +15.4296380     8332.408     635.6594     5221.289  -9.8019   0.0828     8.20    5.427
  0   1247.4235    947.7750 158.9437652 +15.4333003     2224.962     282.7789     5205.345  -8.3683   0.1380     1.11    1.466
  0   1132.2609    950.6180 158.9643104 +15.4327864     3035.072     273.3758     5233.875  -8.7054   0.0978     1.13    1.472
  0   1072.4303    959.7532 158.9749823 +15.4312016      12782.5     787.6022     5239.856 -10.2665   0.0669     3.97    1.160
  3     50.2982   1004.4202 159.1573172 +15.4232068     25053.71     795.0189     5232.963 -10.9972   0.0345    10.07    8.928
  3     50.0000    976.9832 159.1573812 +15.4279251     5685.351     652.1323     5223.829  -9.3869   0.1246     8.38    3.820
  0   1512.1400    986.4879 158.8965312 +15.4266930     439490.7     1025.808     5146.458 -14.1074   0.0025     3.34    1.072
  0    158.6460    961.3644 159.1380047 +15.4306515     7539.958     657.1392     5281.671  -9.6934   0.0946     3.33    1.129
  0   2015.6001    963.7910 158.8067160 +15.4306643     4880.927      313.342     5049.725  -9.2213   0.0697     1.31    1.289
  3     50.0000    986.4078 159.1573775 +15.4263044     14876.71      578.009     5226.114 -10.4313   0.0422     7.67    5.700
  0     84.0784    970.3606 159.1513042 +15.4290769     12000.72     815.4688     5261.221 -10.1980   0.0738     4.18    1.119
  0   1536.0432    974.2296 158.8922690 +15.4288051     16678.13     956.6361     5133.489 -10.5554   0.0623     3.78    1.006
  0    584.4598    975.9657 159.0620334 +15.4282825     3125.787     302.7827      5260.66  -8.7374   0.1052     1.40    1.476
  0    799.6737    986.1643 159.0236359 +15.4265906     15587.87     689.3942     5271.026 -10.4820   0.0480     3.33    1.049
  0    261.0858    987.6412 159.1197196 +15.4261691     7358.385     635.2781     5295.334  -9.6670   0.0938     3.09    1.282
  3     50.2082   1017.2296 159.1573282 +15.4210040     10962.73     783.4406     5238.957 -10.0998   0.0776     8.31    8.229
  0    297.7787    985.5170 159.1131743 +15.4265472     3804.989     303.3402     5296.657  -8.9509   0.0866     3.03    1.431
  0    131.9431    991.5463 159.1427570 +15.4254513     2610.416      302.359     5281.966  -8.5418   0.1258     1.93    1.495
  0    195.7447   1003.4674 159.1313705 +15.4234244     17668.46     495.3394      5290.98 -10.6180   0.0304     4.63    1.819
  0    184.1073    999.0703 159.1334482 +15.4241764     8444.695     349.9811     5288.562  -9.8165   0.0450     1.64    1.025
  0   1920.4531   1006.3312 158.8236856 +15.4233384     3354.533     273.6663     5065.643  -8.8141   0.0886     3.28    1.392
  0    381.6761   1019.8124 159.0981952 +15.4206777     22405.19     571.4672     5299.283 -10.8759   0.0277     5.76    2.367
  0    649.6942   1023.6227 159.0503809 +15.4201063     12394.38     735.7086     5270.819 -10.2331   0.0645     3.15    1.268
  0    704.7868   1027.1472 159.0405516 +15.4195161     5492.621     434.2923     5273.107  -9.3494   0.0859     1.93    1.158
  0   1353.5220   1028.4885 158.9248204 +15.4194410     4907.746     511.4129     5186.584  -9.2272   0.1132     0.47    1.028
  0    515.4732   1357.5208 159.0742167 +15.3626442     3005.315     262.8438     5284.926  -8.6947   0.0950     0.07    1.010
  0    641.4964   1836.0028 159.0515946 +15.2803972     6345.114     621.4308     5179.944  -9.5061   0.1064     3.75    1.617
  0   1370.8348   1937.5414 158.9215519 +15.2631127     593511.6     1156.425     5086.218 -14.4336   0.0021     3.86    1.112
  0    246.4949   1968.8364 159.1219646 +15.2574266     3668.061     303.2279     5166.709  -8.9111   0.0898     1.23    1.419
  0    161.2646   1752.7197 159.1372387 +15.2945619     36146.91     739.8998      5204.27 -11.3952   0.0222     3.93    1.094
  0   1658.7233   1829.8398 158.8702497 +15.2816834     33603.75     801.2124     5028.346 -11.3160   0.0259     4.04    1.205
  0   1782.0762   1978.5944 158.8482386 +15.2561196      17467.2     752.5434     5001.846 -10.6056   0.0468     5.14    1.261
  4   1374.4888   1767.6196 158.9209341 +15.2923350      2222366     1606.676     5112.067 -15.8670   0.0008     4.33    1.070
  0   1614.1871   1992.0757 158.8781632 +15.2537768     18537.84     733.9557     5038.487 -10.6701   0.0430     4.44    1.362
  0   1565.8160   1752.4895 158.8868259 +15.2949709     36980.65     892.0217     5077.616 -11.4199   0.0262     4.09    1.146
  0   1938.2828   1965.6143 158.8203957 +15.2583709     8001.466     686.6512     4956.011  -9.7579   0.0932     3.90    1.053
  0   1307.5038   2001.5944 158.9328280 +15.2520851     1447.369     261.3652     5086.835  -7.9014   0.1961     0.28    1.018
  0   1992.8866   2007.1490 158.8106580 +15.2512341     11263.74     794.2461     4872.316 -10.1292   0.0766     3.52    1.264
  0    435.2491   1393.0958 159.0885123 +15.3565008     4804.282     322.1455     5280.528  -9.2041   0.0728     1.40    1.160
  0    105.7503   1710.6772 159.1471523 +15.3017716     30821.61     980.6211     5215.174 -11.2221   0.0346     4.20    1.096
  0   1014.1218   1684.3374 158.9852030 +15.3065792     14281.25      562.939     5191.743 -10.3869   0.0428     4.24    1.807
  0   1226.0243   1678.7610 158.9474225 +15.3075862     288348.2     737.1393     5148.034 -13.6498   0.0028     4.10    3.190
  0    887.9560   1620.2391 159.0077153 +15.3175706     31664.79     835.0468     5214.502 -11.2514   0.0286     3.39    1.078
  0   1118.5049   1679.4598 158.9665929 +15.3074424     5792.438     583.8152     5173.353  -9.4072   0.1095     0.90    1.004
  0    556.5991   1687.7069 159.0667768 +15.3058743     6811.277     415.1721     5216.667  -9.5831   0.0662     1.67    1.305
  0   1488.9478   1681.4415 158.9005433 +15.3071761     10961.77     389.7464     5111.304 -10.0997   0.0386     1.67    1.186
  0   1308.1532   1658.1572 158.9327834 +15.3111464      5146.21     597.8433     5133.775  -9.2787   0.1262     2.07    1.319
  0    376.2262   1642.4521 159.0989522 +15.3135992     7274.023     357.1232     5204.251  -9.6544   0.0533     1.16    1.195
  0   1287.0685   1606.2887 158.9365537 +15.3200620       427843     1036.654     5148.788 -14.0782   0.0026     3.43    1.050
  0   1629.4924   1597.4363 158.8754979 +15.3216457        65391     954.5809      5106.83 -12.0388   0.0159     3.72    1.150
  0    590.1635   1612.7140 159.0608160 +15.3187811     5526.402     427.7779     5241.159  -9.3561   0.0841     1.37    1.124
  0    235.9865   1598.8055 159.1239732 +15.3210572     9120.188     811.1249     5222.494  -9.9000   0.0966     4.16    1.216
  4   1849.2357   1581.8779 158.8363175 +15.3243519      3881047     2074.177     5031.742 -16.4724   0.0006     5.66    1.168
  0    211.4220   1737.5560 159.1283020 +15.2971875     2184.098     262.0655     5190.526  -8.3482   0.1303     0.22    1.010
  0    370.4897   1550.5608 159.1000069 +15.3294000     2028.573     261.9178     5240.372  -8.2680   0.1402     0.30    1.012
  0    816.8818   1512.5103 159.0204184 +15.3360781     66942.12     1883.633     5247.713 -12.0642   0.0306     8.60    1.621
  0   1024.7179   1952.7001 158.9832468 +15.2604311     12499.27     567.1388     5143.177 -10.2422   0.0493     4.05    1.233
  0    758.4082   1740.5277 159.0307798 +15.2968496     2111.019     301.9478     5210.352  -8.3112   0.1553     0.16    1.035
  0    512.0222   1548.4430 159.0747700 +15.3298099     13238.16     646.3504     5255.938 -10.3046   0.0530     3.45    1.103
  0   1723.5057   1880.5590 158.8586932 +15.2729707      2515.54     311.4585     5010.462  -8.5016   0.1345     0.13    1.023
  0   1693.4457   1623.5410 158.8640905 +15.3171660     2219.444      262.099     5065.469  -8.3656   0.1282     0.38    1.015
  0    772.3984   1884.4718 159.0282442 +15.2720993     3304.662     419.8285     5183.225  -8.7978   0.1380     0.45    1.030
  0   1000.9892   1633.1688 158.9875574 +15.3153755     11129.71     865.4742       5196.7 -10.1162   0.0845     5.82    1.688
  0   1011.5681   1923.7826 158.9855981 +15.2654009     43893.41     775.8862      5155.48 -11.6060   0.0192     3.65    1.148
  0    452.8790   1905.4807 159.0851970 +15.2683911     9215.488       779.28     5146.272  -9.9113   0.0918     5.24    1.155
  0    938.4156   1530.3004 158.9987415 +15.3330505     7160.352     630.7513     5224.588  -9.6373   0.0957     3.27    1.153
  0    135.6194   1934.7427 159.1417415 +15.2632501     4574.768     321.9682     5196.053  -9.1509   0.0764     1.48    1.220
  0    923.2900   1456.4681 159.0014583 +15.3457437      12396.1     567.0935     5243.275 -10.2332   0.0497     3.21    1.143
  0    411.3895   1640.7266 159.0926831 +15.3139076     5475.638     583.6802     5208.052  -9.3461   0.1158     3.54    1.613
  0    143.5620   1640.4661 159.1404375 +15.3138597     23783.74     812.1492     5230.136 -10.9407   0.0371     4.09    1.050
  0   1900.1260   1435.6875 158.8272606 +15.3494986     26531.73     898.5556     5054.365 -11.0594   0.0368     3.77    1.122
  0   1499.9818   1386.5228 158.8986287 +15.3578957     3717.204      406.443      5165.96  -8.9255   0.1187     1.59    1.487
  0   1068.4927   1630.5082 158.9755219 +15.3158492     3971.827     499.8122      5188.71  -8.9975   0.1367     0.65    1.000
  0   1019.6228   1684.5363 158.9842221 +15.3065463     19967.49     617.8093     5191.272 -10.7508   0.0336     3.84    1.403
  0   1755.3728   1387.8676 158.8530817 +15.3577040     32361.03     381.6422     5078.756 -11.2751   0.0128     1.10    1.019
  0    954.9446   1422.5612 158.9958221 +15.3515828     39910.51     834.1299     5246.218 -11.5027   0.0227     3.23    1.057
  0   1154.9475   1422.4951 158.9601543 +15.3516413     5488.166     643.3608       5219.3  -9.3486   0.1273     3.72    1.592
  0   1141.5653   1754.0690 158.9624639 +15.2946170     332023.2      993.756     5166.729 -13.8029   0.0033     3.48    1.073
  0    971.1322   1366.4003 158.9929497 +15.3612449     24453.34     475.6114     5258.839 -10.9708   0.0211     3.45    1.560
  0    248.5601   1369.6077 159.1218148 +15.3604771     751493.4      1134.18     5300.005 -14.6898   0.0016     3.36    1.028
  0   1237.7698   1375.2716 158.9453944 +15.3597804     54378.39     742.2193      5216.23 -11.8386   0.0148     3.35    1.010
  0    542.1392   1382.4489 159.0694529 +15.3583656     26286.63     830.0571     5280.519 -11.0493   0.0343     3.28    1.102
  0    138.9817   1385.3112 159.1413513 +15.3577373     604957.6     1111.752     5300.103 -14.4543   0.0020     3.49    1.014
  0   1557.9175   1388.8367 158.8882959 +15.3575076     698229.8     1132.429      5139.46 -14.6100   0.0018     3.43    1.061
  0   1936.2850   1216.7820 158.8208372 +15.3871484     10455.24     374.6798     5078.131 -10.0483   0.0389     1.27    1.096
  0    293.9517   1539.0078 159.1136590 +15.3313609     6102.149     569.2946     5236.434  -9.4637   0.1013     3.75    1.003
  4   1768.6328   1328.5504 158.8507252 +15.3679067      1119078     1282.129     5086.404 -15.1222   0.0012     3.83    1.087
  0   1093.4709   1948.5752 158.9709921 +15.2611567     2099.596     261.9852     5145.123  -8.3053   0.1355     0.32    1.019
  4     56.7991   1166.5408 159.1560937 +15.3953291      6331972      2692.73     5286.958 -17.0038   0.0005     6.41    1.050
  0   1740.3170   1275.6549 158.8557828 +15.3769994     534427.6     1116.227     5105.083 -14.3197   0.0023     3.60    1.099
  0    498.4853   1234.4570 159.0772867 +15.3838025     1909.492     301.7818     5294.547  -8.2023   0.1716     1.38    1.019
  0   1710.0667   1102.8938 158.8612037 +15.4067053     52020.06     948.1244     5116.488 -11.7904   0.0198     3.62    1.075
  0   1020.8911   1368.5291 158.9840749 +15.3608910     3478.917     303.0727     5256.935  -8.8536   0.0946     1.43    1.525
  0    843.5776   1235.6328 159.0157345 +15.3837006     40828.21     827.6255     5268.787 -11.5274   0.0220     3.12    1.081
  0    652.0933   1066.7069 159.0499398 +15.4126976     6879.718     356.8485     5277.004  -9.5939   0.0563     1.36    1.065
  0    118.3212   1146.9261 159.1451274 +15.3987252     4437.914       488.65     5318.103  -9.1179   0.1196     1.45    1.131
  0    780.9805   1146.9556 159.0269249 +15.3989337     7283.592     349.1549     5276.049  -9.6559   0.0521     1.68    1.028
  0   1187.2819   1077.6761 158.9544656 +15.4109479     10564.94     410.6127     5254.581 -10.0597   0.0422     3.03    1.876
  0   1073.2021   1439.1809 158.9747285 +15.3487532     9240.984     342.4183     5224.391  -9.9143   0.0402     1.53    1.167
  0    983.2452   1170.7659 158.9908394 +15.3948917     5508.048     331.3012     5278.223  -9.3525   0.0653     1.39    1.106
  0   1706.5004   1162.5382 158.8618310 +15.3964476     2346.548     262.2196     5117.417  -8.4261   0.1214     0.25    1.008
  0   1798.9482   1120.9596 158.8453463 +15.4036107     226578.5     955.2803     5109.861 -13.3880   0.0046     3.53    1.100
  0    797.4989   1516.2405 159.0238738 +15.3354314      16078.8     788.6426     5248.511 -10.5156   0.0533     3.32    1.112
  0   1708.1384   1891.7919 158.8614310 +15.2710368     5216.751     331.0824     5013.846  -9.2935   0.0689     1.32    1.143
  0   1214.7554   1062.9980 158.9495679 +15.4134781     8667.594     617.8181     5244.208  -9.8447   0.0774     3.20    1.611
  0    906.3073   2021.8262 159.0043360 +15.2485141     3911.731     293.9995     5091.512  -8.9809   0.0816     1.06    1.071
  0    979.5506   1104.3514 158.9915154 +15.4063123     16308.62     400.2437      5276.81 -10.5310   0.0267     4.97    1.053
  0    581.4678   1173.5232 159.0625049 +15.3943071     8738.762     796.9965     5281.807  -9.8536   0.0990     3.77    1.036
  0    909.8138   1367.1890 159.0038853 +15.3610938     76094.02     848.1788     5257.217 -12.2034   0.0121     3.18    1.037
  0   1734.0542   1363.6554 158.8568872 +15.3618649     11003.01     723.6553      5088.25 -10.1038   0.0714     3.19    1.044
  0   1080.5834   1331.9243 158.9734380 +15.3672001     7391.423     574.7786     5254.107  -9.6718   0.0845     3.35    1.379
  0    756.9800   1337.6722 159.0311508 +15.3661290     4771.964     378.4047     5260.941  -9.1967   0.0861     3.26    1.107
  0    415.2410   1307.3303 159.0921097 +15.3712435      23581.6     1297.932     5299.596 -10.9314   0.0598     8.57    1.540
  0    400.4775   1314.3638 159.0947404 +15.3700292     167974.4      871.485     5299.898 -13.0631   0.0056     3.29    1.068
  3   1781.5004   2006.0032 158.8483375 +15.2514060     39004.39     420.8552     5003.253 -11.4778   0.0117     1.27    1.103
  0   1514.3987   1301.7495 158.8960725 +15.3724769     7961.858     349.6378     5153.696  -9.7525   0.0477     0.97    1.169
  4   1034.4990   1749.8123 158.9815535 +15.2953243      1982263     1525.375     5181.554 -15.7429   0.0008     4.06    1.041
  0   1228.2104   1964.8130 158.9469701 +15.2583940     4289.541      330.385     5121.943  -9.0810   0.0836     1.07    1.107
  0    521.6601   1831.8433 159.0729596 +15.2810763     6093.715     340.1242     5167.198  -9.4622   0.0606     1.65    1.208
  0   1210.3303   1252.9576 158.9503152 +15.3808092     8940.004     674.5806     5244.437  -9.8783   0.0819     3.75    1.251
  0    340.6471   1628.8286 159.1053008 +15.3159302     21329.65     909.5848     5207.967 -10.8225   0.0463     4.06    1.225
  0    494.2279   1267.6426 159.0780352 +15.3780941     6856.689     332.3123      5294.91  -9.5903   0.0526     1.14    1.148
  0    493.9897   1218.2229 159.0780939 +15.3865929     92804.28     1906.348     5293.952 -12.4189   0.0223     7.85    1.083
  0    972.6599   1965.2266 158.9925234 +15.2582643     74134.37     834.2072     5133.411 -12.1750   0.0122     3.66    1.106
  0     10.3732   1258.2250 159.1643381 +15.3795443      20826.9     613.5823     5232.746 -10.7966   0.0320     3.74    1.060
  0    846.1673   1440.6349 159.0152160 +15.3484465     504177.1     1030.502     5254.655 -14.2565   0.0022     3.21    1.012
  0   1802.2832   1233.2023 158.8447364 +15.3843084     104233.6     869.4467     5096.496 -12.5450   0.0091     3.64    1.148
  0   1724.6624   1225.6392 158.8585822 +15.3855986     15036.12     982.3591      5113.87 -10.4428   0.0710     6.04    1.418
  0   1225.9236   1203.0414 158.9475449 +15.3893968     154403.5     880.4914      5248.01 -12.9716   0.0062     3.23    1.029
  0    763.6647   1217.2511 159.0299933 +15.3868400     19603.29     678.5013     5268.943 -10.7308   0.0376     3.18    1.040
  0   1392.4725   1199.5334 158.9178385 +15.3900334      3696.21     263.4969     5193.848  -8.9194   0.0774     0.18    1.011
  0    790.4059   1186.5242 159.0252323 +15.3921316     2385.679      302.174      5274.23  -8.4440   0.1376     0.41    1.022
  0   1435.5380   1154.3624 158.9101654 +15.3978095      7885.33     722.5828     5181.406  -9.7420   0.0995     3.89    1.634
  0    175.9189   1163.8774 159.1348471 +15.3958311     11728.52     431.3694     5325.334 -10.1731   0.0399     1.72    1.346
  0   1485.3503   1480.9785 158.9012210 +15.3416494     43181.07     884.2452     5159.416 -11.5882   0.0222     3.53    1.131
  0    414.4138   1461.5610 159.0922048 +15.3447199     2490.958     369.3544     5269.399  -8.4909   0.1610     0.40    1.010
  0   1618.2274   1128.6552 158.8775822 +15.4022614     11421.52     367.7405     5130.272 -10.1443   0.0350     1.20    1.077
  0   1764.4938   1138.8708 158.8514898 +15.4005259     3596.903     303.1695     5113.784  -8.8898   0.0915     1.22    1.411
  0   1816.4847   1134.4862 158.8422164 +15.4012867     7563.898     612.7947     5105.454  -9.6969   0.0880     2.83    1.019
  0   1611.0043   1139.3344 158.8788689 +15.4004237     23067.15     1295.661     5131.362 -10.9075   0.0610     7.33    2.922
  0   1840.9706   1119.3171 158.8378506 +15.4038985     853079.9     1187.489     5102.986 -14.8275   0.0015     3.59    1.104
  0   1040.6909   1476.8938 158.9805170 +15.3422600     6667.299     652.5068     5222.471  -9.5599   0.1063     3.33    1.342
  0    928.9638   1088.2770 159.0005435 +15.4090640     4956.222     494.6406     5274.088  -9.2379   0.1084     2.72    1.055
  0   1826.6082   1103.0614 158.8404147 +15.4066922     11178.16     849.0622     5104.077 -10.1209   0.0825     4.15    1.417
  0   1156.0852   1784.8517 158.9598682 +15.2893265     6420.958     621.4612     5165.321  -9.5190   0.1051     4.47    1.277
  0    364.7213   1062.7086 159.1012050 +15.4132950     4527.508     313.0613     5311.222  -9.1396   0.0751     2.79    1.091
  0   1078.3876   1073.8241 158.9738919 +15.4115859     4197.512     303.6619     5278.389  -9.0575   0.0786     1.28    1.125
  0   1271.1104   1084.1614 158.9395103 +15.4098504     17673.04     1049.536     5230.177 -10.6183   0.0645     4.62    1.274
  0   1530.4617   2016.6077 158.8930831 +15.2495444     2642.312     361.7531     5051.985  -8.5550   0.1487     0.22    1.048
  0     55.8937   1070.0359 159.1562932 +15.4119249      22554.7     949.3041     5265.008 -10.8831   0.0457     3.72    1.166
  0   1387.4823   1061.4641 158.9187555 +15.4137766     2812.055     262.6608     5181.652  -8.6226   0.1014     0.56    1.014
  0   1906.0291   1076.5065 158.8262505 +15.4112685     583285.3     1137.014     5079.719 -14.4147   0.0021     3.69    1.110
  0   2026.3246   1423.9193 158.8047564 +15.3515360      4062.07     303.5509     5032.798  -9.0219   0.0812     1.21    1.122
  0   1037.5295   2014.8649 158.9809477 +15.2497437     17139.47     702.0927     5101.711 -10.5850   0.0445     3.91    1.075
  0    676.5278   1898.4985 159.0453306 +15.2696600     12886.57     928.7478      5173.13 -10.2753   0.0783     5.18    1.378
  0   1731.9838   1884.4878 158.8571813 +15.2722963     6474.168     584.1057      5008.88  -9.5280   0.0980     2.92    2.557
  0   1480.9805   1873.0109 158.9019291 +15.2742303     5670.606     598.0615     5071.722  -9.3841   0.1145     4.10    1.694
  2   1779.3280   2010.2264 158.8487241 +15.2506795     37144.61     1029.815     5003.962 -11.4247   0.0301     5.09    1.256
  0   1513.4451   1963.0092 158.8961257 +15.2587588     8301.647     778.9882     5059.065  -9.7979   0.1019     4.57    1.605
  0   1405.2660   1987.9119 158.9154045 +15.2544570     26130.23      709.253     5072.069 -11.0429   0.0295     4.15    1.155
  0   1466.6415   1940.7772 158.9044728 +15.2625739     10981.89     862.1714     5068.964 -10.1017   0.0853     5.55    1.331
