#   1 FLAGS                  Extraction flags                                          
#   2 X_IMAGE                Object position along x                                    [pixel]
#   3 Y_IMAGE                Object position along y                                    [pixel]
#   4 ALPHA_J2000            Right ascension of barycenter (J2000)                      [deg]
#   5 DELTA_J2000            Declination of barycenter (J2000)                          [deg]
#   6 FLUX_AUTO              Flux within a Kron-like elliptical aperture                [count]
#   7 FLUXERR_AUTO           RMS error for AUTO flux                                    [count]
#   8 BACKGROUND             Background at centroid position                            [count]
#   9 MAG_AUTO               Kron-like elliptical aperture magnitude                    [mag]
#  10 MAGERR_AUTO            RMS error for AUTO magnitude                               [mag]
#  11 FWHM_IMAGE             FWHM assuming a gaussian core                              [pixel]
#  12 ELONGATION             A_IMAGE/B_IMAGE                                           
  4    246.3154     20.9208 159.1226999 +15.5924110      1431601     1670.314     5940.372 -15.3896   0.0013     4.42    1.083
  0    228.2048     39.7524 159.1259266 +15.5891660       344530     1503.148      5939.69 -13.8431   0.0047     4.23    1.059
  0   1218.6956     22.1497 158.9490835 +15.5924751     26037.44     858.2159     6027.441 -11.0390   0.0358     3.94    1.193
  4     57.9964     47.3714 159.1563131 +15.5877930       335452     845.4262     5824.294 -13.8141   0.0027     6.88    2.643
  4    881.2946     67.0832 159.0093135 +15.5846674      1121194     1571.664     6102.546 -15.1242   0.0015     3.68    1.102
  0     58.2302     32.0383 159.1562775 +15.5904300     15546.47     946.9452      5794.09 -10.4791   0.0661     3.95    1.084
  3     57.8967     63.6451 159.1563245 +15.5849943     35853.18     1860.111     5858.525 -11.3863   0.0563     9.21    5.442
  0   1592.8265     43.1403 158.8822798 +15.5889349     35412.79     1786.347     5957.833 -11.3729   0.0548     6.35    1.433
  2     58.0000    103.8427 159.1562902 +15.5780813     45537.86     1322.465     5925.649 -11.6459   0.0315     6.78   15.458
  0    546.9838     46.2048 159.0690084 +15.5881625     9852.943     841.3138     6076.703  -9.9839   0.0927     3.97    1.232
  0    684.5656     52.9717 159.0444420 +15.5870400     26581.55     1195.565     6082.892 -11.0615   0.0488     3.87    1.054
  0    339.8481     69.1038 159.1059830 +15.5841571     65491.84      1062.21     6017.314 -12.0405   0.0176     3.90    1.055
  3     58.0000     77.4683 159.1563006 +15.5826171     28722.69     971.9094     5884.702 -11.1456   0.0367     5.02    8.546
  0   1711.5261     78.1713 158.8610814 +15.5829283     17754.12     1256.995     5937.422 -10.6232   0.0769     5.05    1.326
  0    857.8752    102.7916 159.0134850 +15.5785202     126079.7     1052.022     6116.767 -12.7516   0.0091     3.38    1.126
  2     58.0000    140.5028 159.1562758 +15.5717767     45796.68     1562.566     5929.218 -11.6521   0.0371     7.10   16.962
  0    186.9926     90.9334 159.1332656 +15.5803493     3175.876     354.4326     5962.605  -8.7547   0.1212     3.39    1.005
  0   1223.1110     98.7091 158.9482783 +15.5793096     10158.45     513.2988     6077.396 -10.0171   0.0549     2.20    1.306
  0   1070.7079    115.2372 158.9754838 +15.5764331     28878.28      859.039     6090.602 -11.1514   0.0323     3.64    1.219
  0   1552.9315    143.3648 158.8893856 +15.5716922     122182.1     1297.565     5992.854 -12.7175   0.0115     3.68    1.150
  0   1351.9696    144.6103 158.9252630 +15.5714419     114038.9     1217.877     6058.064 -12.6426   0.0116     3.60    1.129
  0    480.0087    145.7839 159.0809334 +15.5710161     34312.52     1650.857     6077.508 -11.3386   0.0523     7.54    1.608
  0     34.6971    169.3682 159.1604245 +15.5668036     103562.3     1561.839     5925.077 -12.5380   0.0164     4.72    1.131
  0   2026.9519    164.9887 158.8047569 +15.5680355     90418.59     1417.388     5948.909 -12.3906   0.0170     4.26    1.153
  0   1560.4802    153.5364 158.8880362 +15.5699441      4464.08     355.3355     5993.553  -9.1243   0.0864     0.18    1.003
  2     58.0000    178.9921 159.1562606 +15.5651574     38762.18      1328.99     5938.183 -11.4710   0.0372     5.79   11.333
  0   1339.3802    168.0638 158.9275058 +15.5674059     39724.61     1185.286     6065.216 -11.4976   0.0324     3.85    1.101
  3     58.0000    214.9931 159.1562464 +15.5589661     33466.16     1107.277     5952.252 -11.3115   0.0359     6.04   12.324
  3     58.0000    234.1518 159.1562389 +15.5556713     47301.32     1330.588     5958.553 -11.6872   0.0305     7.55   19.124
  0   1475.5239    215.4806 158.9031919 +15.5592767     7884.283     735.8258     6039.618  -9.7419   0.1014     2.92    1.014
  4   1355.4746    252.6725 158.9246155 +15.5528583      1013445      1544.51     6069.128 -15.0145   0.0017     3.66    1.134
  0    864.0295    221.0241 159.0123539 +15.5581886     3021.814     368.6227     6121.329  -8.7007   0.1325     0.00    1.015
  0   1532.9377    243.8946 158.8929375 +15.5544000     126828.2     1181.759     6026.679 -12.7580   0.0101     3.56    1.101
  2     58.0000    260.0789 159.1562287 +15.5512125     34433.59      1335.94     5965.465 -11.3425   0.0421     5.89   11.712
  0    690.5558    267.4041 159.0433081 +15.5501643     339106.2     1279.275     6123.375 -13.8258   0.0041     3.40    1.092
  2     58.0000    288.4961 159.1562175 +15.5463254     26283.41     1052.988     5972.909 -11.0492   0.0435     5.38    9.788
  0   1437.8273    255.8242 158.9099139 +15.5523318     12056.16     983.5277     6054.413 -10.2030   0.0886     3.90    1.346
  0    949.2469    261.6648 158.9971304 +15.5512214     16959.16     1065.437     6113.847 -10.5735   0.0682     3.47    1.089
  0   1564.9330    258.8395 158.8872234 +15.5518352     9933.848     972.4182     6012.977  -9.9928   0.1063     4.40    1.275
  0     47.0023    296.3745 159.1581775 +15.5449663     22666.45     1286.405     5966.849 -10.8885   0.0616     7.45    1.368
  0   1698.6123    298.6470 158.8633540 +15.5450098     18360.02     1356.009     5938.277 -10.6597   0.0802     5.80    1.163
  0    479.0044    301.0009 159.0810612 +15.5443221     2991.556     467.5067     6087.496  -8.6897   0.1697     0.00    1.024
  2     58.0000    327.4618 159.1562021 +15.5396242     28507.21     1275.435     6010.744 -11.1374   0.0486     5.93   11.864
  0   1340.0254    320.0109 158.9273597 +15.5412747     6206.597     469.2143     6083.167  -9.4821   0.0821   -13.57    1.020
  0    576.8412    334.3211 159.0635862 +15.5386224      26233.8      530.858      6118.84 -11.0472   0.0220     1.01    1.055
  0   1708.6757    349.2538 158.8615501 +15.5363080     94862.21     1268.094     5979.185 -12.4427   0.0145     3.65    1.143
  1     58.0000    358.2531 159.1561900 +15.5343289     26699.27     1048.167     6040.754 -11.0662   0.0426     5.59   10.562
  0   1312.4797    356.8271 158.9322691 +15.5349377     34611.26     1059.842     6096.248 -11.3480   0.0333     3.65    1.235
  0   1241.9991    351.7255 158.9448509 +15.5358006     8297.461     803.1276     6102.628  -9.7974   0.1051     4.01    1.080
  3     58.0000    370.5443 159.1561851 +15.5322151     17805.29     806.0671     6051.945 -10.6264   0.0492     5.08    8.764
  0    726.6984    364.5106 159.0368277 +15.5334746      33112.8     1148.442     6148.667 -11.3000   0.0377     3.50    1.119
  0     58.0000    406.5068 159.1561710 +15.5260304     15807.41     581.9314     6082.935 -10.4972   0.0400     5.91   11.792
  0    632.0263    383.9851 159.0537203 +15.5300979     5943.388     469.0747     6140.047  -9.4351   0.0857     0.00    1.018
  0    778.6000    425.6897 159.0275459 +15.5229677     547018.9      1391.54     6160.453 -14.3450   0.0028     3.33    1.102
  0    659.0860    420.0184 159.0488793 +15.5239090     252706.3      1266.45     6154.093 -13.5065   0.0054     3.28    1.099
  0    288.5277    406.3978 159.1150244 +15.5261328     11368.23     853.9535     6119.034 -10.1392   0.0816     4.01    1.155
  2     58.0000    422.4713 159.1561647 +15.5232848      18453.9     818.9875     6095.194 -10.6652   0.0482     5.43    9.995
  0   1934.0048    406.3198 158.8213226 +15.5265225     6978.209     410.9278     5961.642  -9.6094   0.0640     0.87    1.075
  0   1630.7883    407.1100 158.8754436 +15.5263465      3951.28     382.9908     6032.458  -8.9918   0.1053     1.43    1.271
  0    890.2775    412.9848 159.0076162 +15.5251827     6006.445     653.2992     6146.023  -9.4465   0.1181     3.34    1.052
  0    102.5351    422.8617 159.1482156 +15.5232345      10667.2     895.1234      6125.62 -10.0701   0.0911     4.76    1.156
  2     58.0000    445.1148 159.1561558 +15.5193907     18083.36     849.8474     6111.985 -10.6432   0.0510     5.04    8.638
  0    191.2383    444.9541 159.1323751 +15.5194677     6723.436     446.9289     6148.606  -9.5690   0.0722     1.33    1.185
  2     58.0000    460.9684 159.1561495 +15.5166643     19721.29     886.0455     6123.667 -10.7373   0.0488     5.10    8.811
  0   1955.7814    448.4091 158.8174310 +15.5192865     8360.043     809.5566     5974.987  -9.8055   0.1052     3.43    1.671
  0    306.3086    460.0213 159.1118315 +15.5169170     4112.642     409.1894     6156.579  -9.0353   0.1081     1.29    1.051
  0    497.5272    463.9410 159.0777012 +15.5163061     4097.194       409.18     6149.822  -9.0312   0.1085     1.10    1.425
  4   1327.1804    509.1353 158.9296138 +15.5087471      2028574     1890.181     6137.207 -15.7680   0.0010     4.51    1.126
  0    167.3527    496.6584 159.1366187 +15.5105671       673187     1450.008     6186.711 -14.5703   0.0023     3.51    1.061
  2     58.0000    479.4930 159.1561422 +15.5134785     26443.45     1155.974     6136.808 -11.0558   0.0475     4.98    8.427
  0   1034.0564    467.9632 158.9819395 +15.5157636     2948.323     339.3705      6146.36  -8.6739   0.1250     3.41    1.007
  0   1576.0437    470.1004 158.8852044 +15.5155049     8637.192     470.5011      6078.95  -9.8409   0.0592     1.08    1.043
  2     58.0000    556.5236 159.1561119 +15.5002311     72596.87     1513.128      6172.56 -12.1523   0.0226     6.30   33.556
  0    516.9853    479.2800 159.0742233 +15.5136743     11025.13     552.4982     6155.471 -10.1060   0.0544     2.54    1.970
  0    903.0405    486.5204 159.0053184 +15.5125395     9300.021      911.908     6160.592  -9.9212   0.1065     3.16    1.186
  0    736.5079    484.5125 159.0350415 +15.5128398     7505.586     789.9026     6169.001  -9.6885   0.1143     2.92    1.005
  2     58.0000    505.4542 159.1561320 +15.5090138     25783.54     1091.435     6148.874 -11.0284   0.0460     4.92    8.227
  0   1784.5564    502.5083 158.8479844 +15.5099622     13474.21      1009.81     6030.108 -10.3238   0.0814     3.22    1.031
  0    652.1419    503.1519 159.0500934 +15.5096099     4978.157     396.9001     6166.425  -9.2427   0.0866     3.67    1.270
  4    930.7224    555.5637 159.0003596 +15.5006728      1243298     1613.454     6183.388 -15.2364   0.0014     3.81    1.121
  0    709.0107    535.0101 159.0399342 +15.5041476     5342.287      422.356     6173.582  -9.3193   0.0859     0.00    1.471
  0   1422.0544    551.6804 158.9126730 +15.5014484     9210.334     865.3535      6138.54  -9.9107   0.1020     2.81    1.118
  0     91.1558    557.1512 159.1501944 +15.5001356     6912.583     684.5423     6190.104  -9.5991   0.1075     0.90    1.297
  0   1204.7415    579.0085 158.9514506 +15.4967052     193513.2     1173.902     6167.268 -13.2168   0.0066     3.31    1.187
  0     75.2785    595.4202 159.1530130 +15.4935483     102460.1     2351.492     6202.424 -12.5264   0.0249     6.02    1.077
  3     58.0000    646.1119 159.1560766 +15.4848240     44716.83     1249.976     6218.674 -11.6262   0.0304     8.31   23.160
  3     58.0000    600.9879 159.1560944 +15.4925843     39389.57     1265.361     6194.596 -11.4885   0.0349     5.64   10.751
  2     57.9295    611.1522 159.1561029 +15.4908362      31497.7     1478.652     6199.688 -11.2457   0.0510     7.22    3.744
  0   1691.1526    607.1566 158.8646389 +15.4919521     9819.014     993.4221      6097.23  -9.9802   0.1099     4.46    1.229
  0    885.3559    619.5563 159.0084387 +15.4896558     22607.49     986.1927     6198.913 -10.8856   0.0474     3.35    1.098
  0   1094.2513    632.9711 158.9711562 +15.4874002     3606.947     445.1909     6200.552  -8.8928   0.1340     0.82    1.436
  2    528.5435    643.7695 159.0721071 +15.4853895     22925.98     1463.147     6214.255 -10.9008   0.0693     5.89    1.400
  3     58.0000    674.0898 159.1560656 +15.4800125     33441.49     1088.441     6234.007 -11.3107   0.0353     5.99   12.126
  0   1200.7089    659.1146 158.9521523 +15.4829279     14227.62      515.267     6209.717 -10.3828   0.0393     2.23    1.258
  0    709.1235    660.1420 159.0398769 +15.4826278     4048.893     396.3173     6213.095  -9.0183   0.1063     3.68    1.274
  0   1191.3281    664.0432 158.9538252 +15.4820782     4450.375     409.3947      6214.54  -9.1210   0.0999     1.24    1.083
  3     58.0000    683.5183 159.1560619 +15.4783910     27092.82     960.7931     6240.867 -11.0821   0.0385     5.03    8.588
  0    944.9925    665.4704 158.9977840 +15.4817750     4082.011     409.1708      6229.44  -9.0272   0.1089     0.12    1.442
  0    710.8643    689.7461 159.0395575 +15.4775371     66594.47     1137.642     6227.647 -12.0586   0.0186     3.15    1.210
  0    915.1051    677.0993 159.0031144 +15.4797674     4662.837     396.7025     6236.352  -9.1716   0.0924     0.00    1.244
  0    139.8765    699.6115 159.1414451 +15.4756539     98408.78     2627.223     6306.098 -12.4826   0.0290    10.15    1.791
  0    241.1300    691.7181 159.1233797 +15.4770479     21750.12     747.4456     6307.175 -10.8437   0.0373     3.29    1.116
  0    875.0121    682.8004 159.0102674 +15.4787766     2752.283     368.4407     6235.774  -8.5992   0.1454     0.00    1.632
  0   1267.1476    697.3260 158.9402879 +15.4763704     21144.79     1190.098     6215.584 -10.8130   0.0611     3.50    1.244
  2     58.0000    723.0272 159.1560463 +15.4715964     32571.05     1125.596      6267.62 -11.2821   0.0375     5.13    8.916
  0   1259.6176    694.0724 158.9416323 +15.4769284     13085.63     1074.199     6216.413 -10.2920   0.0891     3.33    1.361
  2     58.0000    706.5093 159.1560528 +15.4744371     25642.31     1052.837     6256.645 -11.0224   0.0446     4.51    6.928
  0     99.8855    707.8451 159.1485781 +15.4742232     4393.729     383.2781     6296.204  -9.1071   0.0947     0.95    1.245
  0    117.2207    715.7826 159.1454817 +15.4728645     16705.96     1140.359     6306.098 -10.5572   0.0741     3.83    1.116
  2     58.0000    751.3818 159.1560351 +15.4667201     28434.56     928.3155     6279.008 -11.1346   0.0355     4.79    9.927
  0   1771.5132    716.9807 158.8502825 +15.4730762     10834.79     934.7124     6123.569 -10.0871   0.0937     3.55    1.555
  0   1380.0555    738.9789 158.9201316 +15.4692295     51430.29     1908.793     6196.578 -11.7780   0.0403     7.05    1.290
  2     58.0000    766.5018 159.1560292 +15.4641198     37508.85     1400.711     6281.046 -11.4353   0.0406     7.55    9.854
  0    243.9028    750.4743 159.1228634 +15.4669442     35807.41     1015.297     6335.651 -11.3849   0.0308     3.31    1.086
  0    174.8876    746.0975 159.1351800 +15.4676722     8259.834     840.8427     6332.475  -9.7924   0.1106     4.45    1.254
  3     58.0000    787.4979 159.1560209 +15.4605090      18469.8     843.8578     6283.594 -10.6662   0.0496     5.16    9.020
  2     58.0000    802.0677 159.1560152 +15.4580034     36707.91     1070.038     6285.449 -11.4119   0.0317     5.66   10.825
  0   1779.8799    787.9985 158.8487797 +15.4608639     24316.79     997.0458     6129.745 -10.9648   0.0445     3.42    1.185
  0    379.5959    794.4423 159.0986354 +15.4594293     31470.23      1097.45      6327.65 -11.2448   0.0379     3.39    1.080
  2     58.0000    825.3515 159.1560060 +15.4539991     30021.17     1063.634     6287.096 -11.1936   0.0385     5.53   10.333
  0   1269.4679    793.4758 158.9398533 +15.4598354     5215.036     734.9229     6250.278  -9.2931   0.1530     0.97    1.008
  0   1027.8419    797.9567 158.9829663 +15.4590108     15217.77     473.9676     6288.761 -10.4559   0.0338     1.29    1.005
  0   1103.9880    798.9994 158.9693791 +15.4588494     11335.67     471.9257     6286.441 -10.1361   0.0452     0.00    1.010
  2     58.0000    843.9880 159.1559987 +15.4507941     32096.95     1059.251     6288.456 -11.2662   0.0358     5.86   11.585
  0    254.0795    806.5547 159.1210271 +15.4573033      6987.48     423.3239      6354.09  -9.6108   0.0658     1.08    1.069
  0    925.3287    827.3099 159.0012502 +15.4539373     20321.18     565.8763     6321.065 -10.7699   0.0302     3.36    1.157
  0   1588.4431    849.9509 158.8829282 +15.4501814     332548.1     1290.075     6170.474 -13.8046   0.0042     3.44    1.150
  0   1484.9801    832.3483 158.9013917 +15.4531913     21631.47      528.697     6186.083 -10.8377   0.0265     0.91    1.197
  3     58.0000    867.0095 159.1559896 +15.4468349     20939.74     874.6479     6290.151 -10.8024   0.0454     4.71    7.554
  0   1400.8224    853.9070 158.9164036 +15.4494684     30906.66     1550.224     6216.063 -11.2251   0.0545     5.48    1.186
  0   1897.0023    853.0248 158.8278733 +15.4496955     3903.377     369.2171     6106.827  -8.9786   0.1027     3.44    1.007
  0    611.2294    867.9849 159.0572816 +15.4468550     101090.9     1185.084         6321 -12.5118   0.0127     3.14    1.147
  0   1471.3718    855.9206 158.9038155 +15.4491350     5537.172     410.0545     6194.555  -9.3582   0.0804     1.38    1.113
  0   1479.5072    862.0466 158.9023628 +15.4480829     4249.275     409.2725     6193.444  -9.0708   0.1046     0.23    1.419
  3     58.0000    877.4515 159.1559855 +15.4450392      9996.38     542.5916     6291.108  -9.9996   0.0589     4.57    7.110
  3     58.0000    885.9537 159.1559822 +15.4435770     32159.54     1049.462      6291.97 -11.2683   0.0354     5.40    9.890
  3     58.0000    913.6359 159.1559713 +15.4388163     30924.63     972.4728      6294.65 -11.2258   0.0342     5.78   18.982
  0   1966.7263    894.0949 158.8154284 +15.4426402      20649.7     975.1556     6104.519 -10.7873   0.0513     3.95    1.183
  0    800.0599    914.9105 159.0235768 +15.4388390     129688.3     1119.491     6355.422 -12.7823   0.0094     3.12    1.162
  0   1366.0620    901.0096 158.9225963 +15.4413612     3133.491     354.4028     6240.654  -8.7401   0.1228     1.11    1.040
  3     58.0000    931.4272 159.1559643 +15.4357567     20932.71     1109.128     6296.948 -10.8021   0.0575     6.56   14.501
  0   1679.3640    904.3807 158.8666973 +15.4408347     8743.619     796.8055     6158.402  -9.8542   0.0990     3.61    1.200
  0    949.3597    911.5117 158.9969404 +15.4394626     25883.32     1310.901     6349.863 -11.0325   0.0550     4.21    1.169
  0   1089.7091    923.3942 158.9718970 +15.4374530     22250.56     991.3301     6331.437 -10.8684   0.0484     3.50    1.148
  0     95.5561    920.1816 159.1492682 +15.4377048     12419.96     817.1527     6353.765 -10.2353   0.0715     4.31    1.072
  3     58.0000    945.0449 159.1559589 +15.4334148     21763.47     909.6373     6302.979 -10.8443   0.0454     5.90   11.765
  3     58.0000    973.5275 159.1559477 +15.4285164     30432.59     1003.733     6315.474 -11.2083   0.0358     5.37    9.761
  3     58.0000    962.9750 159.1559518 +15.4303312     20411.54     897.8273     6310.735 -10.7747   0.0478     5.42    9.931
  0    468.0663    949.0317 159.0827980 +15.4328724     3401.786     354.5911     6368.905  -8.8293   0.1132     1.14    1.057
  0   1072.6986    959.5134 158.9749232 +15.4312374     13255.38     901.5933     6339.573 -10.3060   0.0739     3.03    1.023
  0   1512.0658    986.4814 158.8965315 +15.4266886     552958.2     1377.676      6223.65 -14.3567   0.0027     3.39    1.154
  0    158.6788    961.0978 159.1379909 +15.4306914        10090     883.3374     6378.411 -10.0097   0.0951     3.43    1.307
  0     84.0667    969.8309 159.1512987 +15.4291620     14148.47     1015.081     6350.711 -10.3768   0.0779     5.05    1.391
  0   1535.9604    974.2828 158.8922707 +15.4287906     18670.85     1140.788     6209.909 -10.6779   0.0664     3.97    1.149
  3     58.0000   1003.4426 159.1559359 +15.4233718     23666.51     938.1211      6328.17 -10.9353   0.0430     5.44   10.027
  2     58.0000    991.0093 159.1559408 +15.4255100     22581.45     964.9952     6322.798 -10.8844   0.0464     4.19    6.001
  0    832.7068    973.0375 159.0177360 +15.4288513      4238.04     409.2656     6376.381  -9.0679   0.1049     1.10    1.025
  0    799.8468    985.9614 159.0235947 +15.4266198     21013.25     1127.631     6379.288 -10.8062   0.0583     3.24    1.197
  0    261.0841    987.4229 159.1197115 +15.4262007     10621.22     967.2653      6392.46 -10.0654   0.0989     3.86    1.310
  0   1001.3646    997.8228 158.9876400 +15.4246320     6476.886     458.2136     6357.071  -9.5284   0.0768     1.94    1.229
  0    649.8745   1023.5814 159.0503389 +15.4201075     14005.55     830.1814     6382.653 -10.3658   0.0644     3.42    1.237
  0   1953.0004   1030.0352 158.8178621 +15.4192602     3714.525     369.0898     6129.131  -8.9248   0.1079     0.00    1.027
  0   1613.0349   1979.0470 158.8783569 +15.2560084     7392.601     469.8427     6089.735  -9.6720   0.0690     0.00    1.021
  0   1613.0250   2009.0061 158.8783539 +15.2508562     3255.384     339.5956     6089.444  -8.7815   0.1133     3.43    1.092
  0   1614.3289   1991.9376 158.8781242 +15.2537917     26248.58     1142.439     6089.405 -11.0478   0.0473     4.20    1.031
  4   1374.4594   1767.6184 158.9209265 +15.2923270      2585715      2037.09     6142.683 -16.0315   0.0009     4.65    1.033
  4   1034.4900   1749.8425 158.9815436 +15.2953108      2305105     1944.922     6231.492 -15.9067   0.0009     4.48    1.056
  0    161.4398   1752.8313 159.1371990 +15.2945341     38686.97     914.2537     6285.821 -11.4689   0.0257     3.93    1.180
  0   1565.9072   1752.2776 158.8867962 +15.2949993     50432.18      1307.67     6119.897 -11.7568   0.0282     3.78    1.024
  0   1214.0133   1728.0181 158.9495410 +15.2991047     3389.441     354.5824     6187.451  -8.8253   0.1136     3.41    1.018
  0   1001.2175   1632.3992 158.9875055 +15.3155001     11056.74     918.0344     6257.479 -10.1091   0.0902     3.45    1.702
  0   1354.5161   1854.4348 158.9244648 +15.2773929     12026.91     524.1584     6144.369 -10.2004   0.0473     1.15    1.079
  0    105.9611   1710.4780 159.1471066 +15.3017974     36711.11     1281.075      6298.04 -11.4120   0.0379     4.34    1.225
  0   1016.0610   1684.4825 158.9848457 +15.3065466     165942.5      1150.21     6248.467 -13.0499   0.0075     3.31    1.095
  0    676.5026   1898.4962 159.0453247 +15.2696515     12332.46     1107.197     6222.226 -10.2276   0.0975     4.39    2.193
  0   1588.0994   1822.1143 158.8828279 +15.2829927     4640.398     396.6884     6102.557  -9.1664   0.0928     3.64    1.242
  6   1849.1570   1581.9556 158.8363172 +15.3243312      4480802     2609.308     6079.634 -16.6284   0.0006     5.99    1.102
  0    213.0294   1680.7646 159.1280278 +15.3069462     12652.52     524.4553     6290.742 -10.2554   0.0450     1.29    1.115
  3   1838.4940   1578.4756 158.8382190 +15.3249284     30844.51     654.8436     6086.198 -11.2229   0.0231     5.19    1.217
  0     59.6663   1596.2128 159.1554056 +15.3214307     7935.915      459.005     6303.479  -9.7490   0.0628     2.96    1.236
  0    888.0388   1620.2006 159.0076896 +15.3175694     38663.44     1140.617     6269.321 -11.4683   0.0320     3.18    1.076
  0     97.0016   1672.0237 159.1487189 +15.3084072     4106.878     369.3542     6306.951  -9.0338   0.0977     3.46    1.003
  0    340.6511   1628.8585 159.1052911 +15.3159169     27441.73     1221.403     6278.979 -11.0960   0.0483     4.08    1.108
  0   1068.4843   1630.5154 158.9755117 +15.3158401     6454.669     735.3423     6245.616  -9.5247   0.1237     1.20    1.028
  0   1629.5968   1597.3363 158.8754657 +15.3216554     75732.84     1157.637     6163.561 -12.1982   0.0166     3.61    1.067
  0    817.2122   1512.5261 159.0203489 +15.3360680     84038.77     2367.075     6323.853 -12.3112   0.0306     7.33    1.621
  0   1141.5754   1754.0610 158.9624502 +15.2946101     414706.6     1325.463     6210.285 -14.0444   0.0035     3.39    1.067
  0    739.9274   1924.3331 159.0340105 +15.2652263     5911.723     410.2816     6223.306  -9.4293   0.0754     1.22    1.083
  0    143.6445   1640.3494 159.1404145 +15.3138716     31385.74      1247.32      6314.56 -11.2418   0.0432     4.16    1.134
  0    411.5131   1640.5137 159.0926519 +15.3139361     6469.981     676.7873     6272.509  -9.5273   0.1136    -0.03    1.005
  0    236.0209   1598.7000 159.1239585 +15.3210673     6498.046     728.2946     6307.768  -9.5320   0.1217     4.19    1.084
  0   1287.0709   1606.2633 158.9365409 +15.3200588     538204.5      1375.01     6195.439 -14.3274   0.0028     3.38    1.066
  0    797.8101   1516.0237 159.0238078 +15.3354612     24037.29     1186.354     6323.454 -10.9522   0.0536     3.63    1.005
  0   1381.9963   1527.9974 158.9196299 +15.3335373     3474.742     368.9282     6225.736  -8.8523   0.1153     3.46    1.002
  0   1521.0305   1520.4932 158.8948381 +15.3348529     6751.883     435.2272     6198.043  -9.5736   0.0700     4.17    1.103
  0    938.7452   1530.2466 158.9986717 +15.3330523     10323.55     770.9329     6298.378 -10.0346   0.0811     3.23    1.134
  0    512.0624   1548.1516 159.0747534 +15.3298522     16712.69     896.8018     6331.746 -10.5576   0.0583     3.36    1.091
  0    294.0161   1538.9780 159.1136387 +15.3313582     6497.844     756.1484     6317.188  -9.5319   0.1264     3.66    1.025
  0     94.1564   1460.1746 159.1493084 +15.3448388      3381.58     395.8982     6350.469  -8.8228   0.1271     1.29    1.292
  0   1900.2032   1435.5958 158.8272324 +15.3495076     36088.87     1308.893     6106.995 -11.3934   0.0394     3.99    1.029
  0    195.8882   1453.8572 159.1311687 +15.3459624     4784.369     396.7787     6367.278  -9.1996   0.0901     0.00    1.268
  0    994.0297   1887.9934 158.9887222 +15.2715426     7183.648      469.732      6210.16  -9.6409   0.0710     0.00    1.010
  0   1011.8831   1923.7788 158.9855305 +15.2653928     96777.16     1252.065     6206.355 -12.4644   0.0141     3.52    1.074
  0    453.5763   1905.3214 159.0850632 +15.2684096     9175.906     934.2708     6210.686  -9.9066   0.1106     4.18    1.039
  0   1091.8646   1911.0764 158.9712756 +15.2675962     5669.103     446.3417      6200.58  -9.3838   0.0855     0.00    1.174
  0   1155.0548   1422.4843 158.9601234 +15.3516361     6990.181     749.4455     6298.723  -9.6112   0.1164     2.64    1.568
  0    161.0007   1490.0021 159.1373766 +15.3397338        12336     472.4527     6366.292 -10.2279   0.0416     4.20    1.013
  0   1523.0216   1916.0092 158.8944135 +15.2668345     3843.709     369.1769     6106.886  -8.9619   0.1043     3.43    1.017
  0   1485.5079   1480.8481 158.9011798 +15.3416647     55271.34     1268.479     6220.894 -11.8562   0.0249     3.45    1.177
  0   1040.5087   1476.5173 158.9805381 +15.3423174     10214.78     956.4133     6299.606 -10.0231   0.1017     3.55    1.018
  0   1658.6393   1829.7035 158.8702509 +15.2816986     41514.23     1075.969     6076.274 -11.5455   0.0281     4.00    1.059
  0    987.7923   1464.9988 158.9899421 +15.3442855     4536.505     421.8812     6312.476  -9.1418   0.1010    -2.30    1.039
  0   1752.9930   1465.9384 158.8534811 +15.3442707     4345.876     340.3934     6128.264  -9.0952   0.0851     1.38    1.094
  0    923.3679   1456.2854 159.0014334 +15.3457679     12832.65     895.7249     6330.633 -10.2708   0.0758     3.02    1.103
  0    846.1605   1440.6641 159.0152065 +15.3484342     633747.6     1365.953     6342.639 -14.5048   0.0023     3.17    1.128
  0    909.8740   1367.1616 159.0038636 +15.3610915     94943.64     1078.711     6353.646 -12.4437   0.0123     3.23    1.141
  0   1557.8988   1388.8032 158.8882860 +15.3575065     874347.4     1477.135     6214.432 -14.8542   0.0018     3.40    1.103
  0   1237.8065   1375.1857 158.9453758 +15.3597883     70671.24     1161.009     6297.802 -12.1231   0.0178     3.39    1.111
  0    954.9550   1422.3632 158.9958092 +15.3516097     55415.63     1347.534     6336.252 -11.8591   0.0264     3.40    1.073
  0   1466.9893   1940.4845 158.9043977 +15.2626156     13212.45     1098.021       6111.2 -10.3025   0.0903     5.22    1.515
  0    138.9567   1385.4360 159.1413475 +15.3577085     761683.2     1479.155     6393.032 -14.7044   0.0021     3.46    1.125
  0   1937.5316   1964.5094 158.8205149 +15.2585522     9124.899     822.4573     5992.955  -9.9006   0.0979     0.78    1.013
  4    248.5585   1369.6754 159.1218065 +15.3604582     963921.6     1471.215     6399.002 -14.9601   0.0017     3.38    1.128
  0    581.7609   1173.4154 159.0624430 +15.3943192     6874.175     714.0914     6390.669  -9.5931   0.1128     3.40    1.602
  0    542.1945   1382.3923 159.0694335 +15.3583681     32249.12     1069.001     6372.104 -11.2713   0.0360     3.42    1.199
  0    459.7008   1355.7535 159.0841547 +15.3629233     4785.746     369.8111     6381.817  -9.1999   0.0839     1.38    1.255
  0   1734.3260   1363.4592 158.8568249 +15.3618920     11463.49     722.8738     6148.729 -10.1483   0.0685     4.11    1.022
  0   1080.6432   1332.2161 158.9734157 +15.3671432     12494.93     1078.863     6353.497 -10.2418   0.0938     4.29    1.312
  0   1405.2587   1352.4427 158.9155156 +15.3637328     4729.415     355.5212     6270.571  -9.1870   0.0816     1.41    1.467
  4   1768.5718   1328.4995 158.8507221 +15.3679090      1372448     1673.878     6148.468 -15.3437   0.0013     3.74    1.099
  0    456.3954   1359.9926 159.0847428 +15.3621933     20800.42     528.3058     6380.463 -10.7952   0.0276     0.98    1.209
  0     19.4104   1311.7920 159.1626972 +15.3703286     3507.283     382.7023     6310.994  -8.8624   0.1185     0.70    1.409
  0    757.4915   1337.0360 159.0310494 +15.3662316     8267.021     803.1181     6359.056  -9.7934   0.1055     3.41    1.170
  0    400.5563   1314.3656 159.0947172 +15.3700218     210010.5     1181.775     6403.062 -13.3056   0.0061     3.17    1.146
  0   1802.3081   1233.1313 158.8447179 +15.3843145     131051.6     1262.955     6165.329 -12.7936   0.0105     3.62    1.086
  0    415.8205   1307.1221 159.0919972 +15.3712725      24954.3     1545.928     6403.855 -10.9929   0.0673     6.21    1.193
  0   1514.0247   1277.0132 158.8961306 +15.3767243     2502.269     353.9595     6230.257  -8.4958   0.1536     0.00    1.027
  0   1740.2972   1275.5828 158.8557725 +15.3770055     671213.4     1481.409     6174.524 -14.5672   0.0024     3.54    1.128
  0   1210.5048   1252.6423 158.9502722 +15.3808570      9463.16     865.4262     6343.506  -9.9401   0.0993     3.86    1.856
  0    843.6361   1235.5808 159.0157134 +15.3837029     52961.57     1143.731     6372.104 -11.8099   0.0235     3.21    1.139
  0    967.9800   1096.2238 158.9935705 +15.4077011     9426.401     470.9182     6384.743  -9.9359   0.0543     1.02    1.112
  4     56.6455   1166.7777 159.1561132 +15.3952816      7239942     3374.259     6385.818 -17.1493   0.0005     7.67    1.083
  0    682.8863   1622.7087 159.0442696 +15.3170817     6449.927     410.6078     6302.535  -9.5239   0.0691     1.52    1.134
  0   1555.9744   1179.9656 158.8886649 +15.3934213     4822.085     422.0495     6212.741  -9.2081   0.0951     3.76    1.439
  0    538.0568   1041.9933 159.0702811 +15.4169073     9416.619     470.9131     6391.854  -9.9347   0.0543     4.27    1.015
  0   1513.1541   1962.8474 158.8961643 +15.2587778     11429.42     962.1161     6105.989 -10.1451   0.0914     2.91    1.243
  0     55.9709   1070.1218 159.1562716 +15.4119038     26216.57     1212.659     6356.813 -11.0464   0.0502     3.59    1.011
  0    127.9376   1209.0131 159.1433803 +15.3880448     14618.88     473.6531     6429.913 -10.4123   0.0352    -6.76    1.008
  0   1640.0162   1177.2188 158.8736744 +15.3939071     3182.097     339.5419     6198.784  -8.7568   0.1159    -2.30    1.547
  0    493.7525   1218.3944 159.0781268 +15.3865566     119536.2     2611.471     6398.625 -12.6937   0.0237     7.99    1.210
  0     10.2034   1258.1476 159.1643608 +15.3795505     22835.94      807.618     6313.218 -10.8965   0.0384     3.81    1.183
  0   1219.7266   1205.3027 158.9486378 +15.3890003     198101.4     1230.735     6353.831 -13.2422   0.0067     3.52    1.198
  0    763.8182   1217.1083 159.0299556 +15.3868581     23893.69     991.7424     6377.557 -10.9457   0.0451     3.19    1.127
  0   1725.1794   1224.9465 158.8584763 +15.3857116     17389.97     1227.802     6185.736 -10.6007   0.0767     5.91    1.428
  0   1436.0065   1153.9773 158.9100692 +15.3978698     7274.226     796.3466     6264.467  -9.6545   0.1189     4.71    1.017
  0    972.6688   1965.1713 158.9925104 +15.2582647     97290.93      1171.12     6203.041 -12.4702   0.0131     3.73    1.023
  0   1905.9918   1076.4606 158.8262428 +15.4112709     727730.1     1476.937      6149.86 -14.6549   0.0022     3.52    1.124
  0   1800.5033   1795.4984 158.8449641 +15.2876010      6577.07     789.6102     6024.933  -9.5451   0.1304     2.92    1.001
  0   1798.8563   1120.9243 158.8453487 +15.4036110     287618.3     1297.415     6179.021 -13.6470   0.0049     3.59    1.146
  4   1840.8965   1119.2679 158.8378497 +15.4039012      1074808     1554.362     6170.846 -15.0783   0.0016     3.59    1.129
  0   1610.1840   1138.3696 158.8790021 +15.4005836     30716.48      1570.07     6206.489 -11.2184   0.0555     6.43    2.204
  0   1709.9174   1102.8585 158.8612167 +15.4067057     63974.12     1233.019     6193.442 -12.0150   0.0209     3.45    1.153
  0   1052.0515   1095.6655 158.9785733 +15.4078176     4763.408     409.5848     6385.321  -9.1948   0.0934     1.04    1.083
  0   1825.7980   1102.9766 158.8405451 +15.4067010     15119.24     1121.732     6172.236 -10.4488   0.0806     3.19    1.235
  0    928.5188   1088.4677 159.0006120 +15.4090250     5920.688     676.5854      6384.52  -9.4309   0.1241     0.45    1.004
  0   1271.4862   1083.9850 158.9394312 +15.4098749     16460.06     1202.087     6327.701 -10.5411   0.0793     5.00    1.558
  0   1037.7686   2014.8901 158.9808934 +15.2497302     22159.95     1123.292     6180.682 -10.8639   0.0550     3.52    1.019
  0   1158.1422   1876.9625 158.9594683 +15.2734779      8752.99     470.5623     6197.196  -9.8554   0.0584     1.35    1.019
  0   1405.3197   1987.6010 158.9153820 +15.2545015     34950.58     1050.124     6116.479 -11.3586   0.0326     4.07    1.099
  0   1779.5233   2010.1200 158.8486750 +15.2506890     46615.14      1424.27     6049.053 -11.6713   0.0332     4.62    1.097
  0   1020.2554   1987.0098 158.9840221 +15.2545207      2941.01     339.3652     6191.653  -8.6712   0.1253     0.81    1.405
  0   1021.6906   1952.1263 158.9837750 +15.2605201     9069.143     459.6187     6203.362  -9.8939   0.0550     4.11    2.470
  0   1932.0265   1999.1707 158.8214923 +15.2525908     6171.942     446.6219     5996.382  -9.4761   0.0786     0.91    1.181
  0   1782.3971   1978.4403 158.8481671 +15.2561374     26279.76     1182.461     6048.586 -11.0491   0.0489     4.67    1.165
  0   1370.8702   1937.4667 158.9215328 +15.2631168     746890.1     1528.264     6133.274 -14.6831   0.0022     3.71    1.021
