#   1 FLAGS                  Extraction flags                                          
#   2 X_IMAGE                Object position along x                                    [pixel]
#   3 Y_IMAGE                Object position along y                                    [pixel]
#   4 ALPHA_J2000            Right ascension of barycenter (J2000)                      [deg]
#   5 DELTA_J2000            Declination of barycenter (J2000)                          [deg]
#   6 FLUX_AUTO              Flux within a Kron-like elliptical aperture                [count]
#   7 FLUXERR_AUTO           RMS error for AUTO flux                                    [count]
#   8 BACKGROUND             Background at centroid position                            [count]
#   9 MAG_AUTO               Kron-like elliptical aperture magnitude                    [mag]
#  10 MAGERR_AUTO            RMS error for AUTO magnitude                               [mag]
#  11 FWHM_IMAGE             FWHM assuming a gaussian core                              [pixel]
#  12 ELONGATION             A_IMAGE/B_IMAGE                                           
 19     50.4818     64.6490 159.1576276 +15.5848777    -110488.5     1910.659     4909.439  99.0000  99.0000    25.30   54.020
  3    239.3932     33.7548 159.1239090 +15.5902523     298174.2     1353.974     4977.315 -13.6862   0.0049     4.54    1.057
  2    246.4470     20.8126 159.1226538 +15.5924802      1112468     1373.263     4974.723 -15.1157   0.0013     4.47    1.110
  0   1218.8046     22.3116 158.9490395 +15.5924562     19344.97     658.6629     5039.954 -10.7164   0.0370     4.05    1.090
  0     40.5325     24.5735 159.1594181 +15.5917664     2262.154      269.858     4841.245  -8.3863   0.1296     0.43    1.011
  0    881.3755     66.9927 159.0092772 +15.5847063     904871.9     1312.563     5102.056 -14.8915   0.0016     3.97    1.036
  2     50.5137     47.7248 159.1576279 +15.5877883     337431.7     700.3691     4889.764 -13.8205   0.0023     6.65    1.961
  0    652.6537     35.8760 159.0501220 +15.5900039      3975.96     389.0356     5078.482  -8.9986   0.1063     1.44    1.122
  0   1592.7006     42.9318 158.8822779 +15.5889636     25175.13     1300.558      4986.96 -11.0024   0.0561     6.88    1.458
  0     54.0000     47.9252 159.1570053 +15.5877550     12933.83     888.3336     4894.226 -10.2793   0.0746     0.00    4.789
  0    684.4577     52.8631 159.0444391 +15.5870904     18251.07     837.9496      5085.44 -10.6532   0.0499     4.28    1.058
  0    545.8389     46.6121 159.0691905 +15.5881298     7259.619     667.6441     5078.725  -9.6523   0.0999     3.43    1.722
  0   2014.2356     49.7549 158.8070140 +15.5878266     10619.49     695.1757     4950.522 -10.0653   0.0711     3.20    2.438
  0    339.8322     69.1052 159.1059651 +15.5842033     49899.09     854.3152     5035.518 -11.7452   0.0186     4.27    1.059
  0   1956.5410     54.5548 158.8173148 +15.5869976      4687.23      526.473     5017.695  -9.1773   0.1220     0.32    1.023
  0    647.8606     71.7672 159.0509684 +15.5838301      4977.52     440.0804     5090.266  -9.2425   0.0960     1.54    1.149
  0   1633.1099     69.5295 158.8750599 +15.5843940     3003.671     311.5952     4979.037  -8.6941   0.1127     1.78    1.484
  0    671.1067     75.0498 159.0468171 +15.5832714     8950.664     368.6451     5092.594  -9.8796   0.0447     2.08    1.164
  3     50.5022    144.0012 159.1575961 +15.5712309     35675.02     884.6051     4963.743 -11.3809   0.0269    10.53   12.439
  0   1711.5164     78.0165 158.8610601 +15.5829426     8160.561     727.9041     4969.352  -9.7793   0.0969     3.40    1.605
  0   1965.4762     84.5151 158.8157175 +15.5818457     19785.04     929.6467      4984.89 -10.7408   0.0510     4.32    4.487
  0    857.8344    102.7616 159.0134720 +15.5785496     99965.26     865.3256     5111.334 -12.4996   0.0094     3.82    1.061
  0    603.4944    102.5581 159.0588813 +15.5785234      1596.36     269.2436     5095.139  -8.0078   0.1832     0.18    1.010
  0   1071.1351    115.4598 158.9753873 +15.5764100     18523.76     759.4893     5092.354 -10.6693   0.0445     3.90    1.086
  3     50.5028    198.5701 159.1575769 +15.5618463     64697.02     1446.894     4976.569 -12.0272   0.0243    14.79   24.347
  0   1057.1045    121.9855 158.9778909 +15.5752850     9395.238     360.7569     5094.137  -9.9323   0.0417     1.60    1.007
  0   1552.8688    143.2507 158.8893770 +15.5717062     99249.22     1085.642     5009.999 -12.4918   0.0119     4.22    1.016
  0   1351.9507    144.5890 158.9252470 +15.5714485     92171.78     1078.494     5061.798 -12.4115   0.0127     4.16    1.053
  0   2016.2620    124.7632 158.8066479 +15.5749269     14752.21     713.5997     4975.358 -10.4221   0.0525     3.23    2.416
  0    479.9078    145.8767 159.0809337 +15.5710405     32071.79      1476.09      5077.16 -11.2653   0.0500     8.40    1.340
  3     50.5217    333.4429 159.1575262 +15.5386511     99224.39     2070.148     5029.228 -12.4915   0.0227    26.56   42.782
  0     34.6840    169.1906 159.1604113 +15.5668935     81584.19     1221.667     4965.022 -12.2790   0.0163     5.19    1.188
  3     50.2471    170.2379 159.1576325 +15.5667187     22303.68     952.5334     4970.342 -10.8709   0.0464     8.02    5.655
  0   2027.0023    164.8569 158.8047281 +15.5680322     66362.66     1032.793     4974.212 -12.0548   0.0169     4.78    1.046
  0   1339.2262    168.0820 158.9275150 +15.5674063     31213.92     976.5125     5067.576 -11.2359   0.0340     4.44    1.049
  0   1243.7078    158.7072 158.9445693 +15.5690033     4321.179     302.9392     5082.724  -9.0890   0.0761     1.39    1.286
  0   1505.6316    169.8872 158.8978067 +15.5671193     2839.541     270.3897     5030.117  -8.6331   0.1034     2.00    1.709
  0   1576.7462    182.7788 158.8851092 +15.5649110     4084.866     339.9322     5009.775  -9.0279   0.0904     1.41    1.139
  0    571.4598    180.5413 159.0645794 +15.5651036     2354.373      269.943     5097.291  -8.4297   0.1245     0.27    1.050
  3     50.5322    235.0547 159.1575589 +15.5555717     47970.35     1239.151     4983.675 -11.7024   0.0281    10.08   11.368
  0   1620.6769    187.6916 158.8772659 +15.5640712     3963.157     282.2134     4985.481  -8.9951   0.0773     1.17    1.250
  0   1382.5959    202.6593 158.9197670 +15.5614662     12308.03     362.7598     5065.548 -10.2255   0.0320     0.90    1.009
  0   1187.0680    217.0542 158.9546706 +15.5589591     21558.93     561.6421     5092.501 -10.8341   0.0283     4.99    2.468
  0   1355.5283    252.5795 158.9245914 +15.5528770     808398.6     1287.207     5075.451 -14.7691   0.0017     3.97    1.021
 19     50.6957    259.3122 159.1575211 +15.5514000     41915.79     1717.125     4988.079 -11.5559   0.0445    11.99   15.794
  0   1532.9205    243.7925 158.8929252 +15.5544126     99109.77     993.6577     5038.326 -12.4903   0.0109     4.19    1.018
  0    690.6477    267.3417 159.0432791 +15.5502062     275077.2     1070.794     5117.402 -13.5986   0.0042     3.87    1.032
  0   1094.6136    254.8172 158.9711683 +15.5524479     6964.474     658.5227     5093.672  -9.6072   0.1027     3.42    1.728
  0   1437.8202    255.6548 158.9099006 +15.5523600     11074.24     814.0885     5063.419 -10.1108   0.0798     3.49    1.135
  0    949.2670    261.8412 158.9971133 +15.5512110     15461.75      875.497     5109.987 -10.4731   0.0615     4.44    1.092
  0   1565.1118    258.8584 158.8871767 +15.5518256     6635.886     743.6297     5024.717  -9.5547   0.1217     4.49    1.261
  2     50.6061    291.1999 159.1575260 +15.5459160     19640.88     923.1585     4995.205 -10.7329   0.0510    11.35    2.528
  0   1697.9108    298.6006 158.8634660 +15.5450055     10878.25     814.0286     4967.934 -10.0914   0.0813     4.68    1.838
  0   1775.6982    321.6131 158.8495781 +15.5410553     20271.16     486.9583     4973.848 -10.7672   0.0261     3.96    1.804
  0   1708.6650    349.2003 158.8615410 +15.5363045     77895.74     1124.096     5000.748 -12.2288   0.0157     4.08    1.038
  0    971.6736    333.7124 158.9930981 +15.5388554     5851.763     323.2388     5113.526  -9.4182   0.0600     1.44    1.071
  0    337.6222    342.9658 159.1062753 +15.5371046     4262.732     312.5987     5086.276  -9.0742   0.0796     1.28    1.165
  0   1312.3563    356.8428 158.9322813 +15.5349392     28227.53     872.2938     5097.247 -11.1267   0.0336     3.93    1.109
  0    726.6637    364.4280 159.0368255 +15.5335182      26736.4     898.8622     5138.367 -11.0678   0.0365     3.88    1.022
  0   1131.5420    362.5432 158.9645555 +15.5339282     2655.249     270.2201     5108.618  -8.5603   0.1105     0.28    1.005
  2     50.6270    404.4922 159.1574825 +15.5264323     23095.47     764.9009     5081.519 -10.9088   0.0360     9.24    9.051
  0    424.5337    378.5565 159.0907510 +15.5310090     2273.563     269.8685     5117.505  -8.3918   0.1289     0.35    1.005
  3     50.6490    428.3791 159.1574702 +15.5223243     22698.28     728.7676     5099.214 -10.8900   0.0349     8.71    7.890
  0    659.1735    419.9007 159.0488580 +15.5239614     203597.2     1095.746     5142.258 -13.2719   0.0058     3.72    1.037
  0    778.6962    425.6382 159.0275229 +15.5230036     437129.7     1139.702     5145.494 -14.1015   0.0028     3.77    1.042
  0    288.1649    406.4774 159.1150835 +15.5261671     9580.446     582.5432     5116.385  -9.9535   0.0660     4.17    1.119
  3     50.5579    441.4592 159.1574819 +15.5200747      7921.83     606.9641     5109.255  -9.7471   0.0832     7.22    6.335
  3     50.5792    491.4998 159.1574605 +15.5114689     39163.64     966.2465     5142.995 -11.4822   0.0268    11.56   14.615
  0    102.0122    423.0369 159.1483044 +15.5232602     7322.594     715.1944     5131.224  -9.6617   0.1061     4.04    1.016
  3     51.0000    448.0121 159.1574007 +15.5189479     10222.32     627.2553     5114.662 -10.0239   0.0666     7.71    6.282
  2     50.6058    464.7327 159.1574652 +15.5160722     24504.52     971.7324     5127.793 -10.9731   0.0431     6.56    4.447
  0   1955.3911    448.8986 158.8174935 +15.5191789     8911.508     787.2994     4996.729  -9.8749   0.0959     4.20    1.335
  4   1327.2676    509.0520 158.9295951 +15.5087648      1883627     1572.469     5133.212 -15.6875   0.0009     4.14    1.033
  0   1458.6294    463.7396 158.9061564 +15.5165767     3035.231     281.3943     5100.796  -8.7055   0.1007     1.16    1.422
  0    167.4403    496.6105 159.1366017 +15.5106284     538820.2     1216.947     5181.071 -14.3286   0.0025     4.01    1.037
  0   1989.0853    480.3675 158.8114776 +15.5137690     5037.855     440.1145     4998.745  -9.2556   0.0949     1.90    1.160
  0    902.9999    486.9631 159.0053223 +15.5124850     7539.833       715.27     5144.404  -9.6934   0.1030     4.12    1.722
  3     50.6635    513.0225 159.1574379 +15.5077675     19819.73      626.298     5149.251 -10.7427   0.0343     7.56    6.832
  0   1859.7970    492.7361 158.8345521 +15.5116329     6428.459     341.6429     5034.629  -9.5203   0.0577     1.27    1.108
  0   1784.2394    502.8142 158.8480366 +15.5098934     10478.66     799.0898     5044.814 -10.0508   0.0828     6.20    1.331
  0    930.8381    555.4825 159.0003386 +15.5007070      1039646       1328.9     5162.415 -15.0422   0.0014     3.76    1.033
  3     50.6105    522.1945 159.1574442 +15.5061901     3953.701     411.4147      5151.81  -8.9925   0.1130     4.96    2.694
  3     50.5559    536.2227 159.1574490 +15.5037775     8162.633     571.5781     5155.791  -9.7796   0.0760     6.85    5.219
  3     50.7250    527.8294 159.1574218 +15.5052210     5992.487      466.985     5153.516  -9.4440   0.0846     5.70    3.502
  0    668.5212    521.5689 159.0471632 +15.5064790     2298.568     269.8915     5158.938  -8.4036   0.1275     0.28    1.010
  3     50.6404    544.3922 159.1574311 +15.5023726     8954.842     592.4482     5158.065  -9.8801   0.0718     7.13    5.363
  3     50.6543    563.6848 159.1574218 +15.4990546     13403.02     683.1761     5164.974 -10.3180   0.0554     8.21    7.082
  3     50.6735    553.8317 159.1574218 +15.5007492     9194.955      481.267     5161.488  -9.9089   0.0568     5.82    3.802
  0   1204.7688    578.9766 158.9514459 +15.4967192     149523.3     957.5175     5153.393 -12.9368   0.0070     3.83    1.024
  3     50.6518    580.5783 159.1574163 +15.4961493     17931.89     611.0529     5170.901 -10.6341   0.0370     7.36    5.682
  3     50.5085    572.9954 159.1574446 +15.4974534     4543.257     396.9959     5168.112  -9.1434   0.0949     4.75    2.624
  0   2003.6748    570.7618 158.8088683 +15.4982240     8199.707     342.9302     5041.647  -9.7845   0.0454     1.17    1.159
  3     50.5922    625.8406 159.1574111 +15.4883652     22632.61     904.3568     5189.696 -10.8868   0.0434    10.88   13.016
  3     50.4966    594.4815 159.1574392 +15.4937582     17840.15      644.332     5174.819 -10.6285   0.0392     7.26    5.940
  0     75.3255    595.5046 159.1530078 +15.4935906     87679.85     1923.594      5191.07 -12.3572   0.0238     6.54    1.116
  0   1123.3993    581.5538 158.9659672 +15.4962614     8017.184     406.5819     5154.292  -9.7601   0.0551     2.21    1.202
  3     50.6146    603.8854 159.1574148 +15.4921410      13594.4     857.7248     5178.921 -10.3334   0.0685     6.48    4.250
  3     50.8685    610.5999 159.1573672 +15.4909864     13646.01     678.8782     5181.727 -10.3375   0.0540     6.08    3.779
  0    885.4040    619.4924 159.0084328 +15.4896889     22994.18      930.505     5177.822 -10.9040   0.0439     3.78    1.019
  3     50.5094    664.4183 159.1574124 +15.4817307     19242.25     771.4311     5209.887 -10.7106   0.0435     9.23    9.538
  3     50.7483    644.0392 159.1573769 +15.4852355     10022.33     607.8243      5199.26 -10.0024   0.0659     7.49    5.290
  3     51.0000    652.0083 159.1573292 +15.4838651     5015.045     520.9243     5203.511  -9.2507   0.1128     6.32    2.758
  0    658.5515    647.3606 159.0489098 +15.4848430     4884.681     322.4937     5184.335  -9.2221   0.0717     3.76    1.707
  0    421.5165    645.5840 159.0912107 +15.4850851      1568.87     269.2181     5229.176  -7.9890   0.1864     0.26    1.021
  0    528.5143    647.4927 159.0721157 +15.4847865      10167.2     668.7266     5194.196 -10.0180   0.0714     2.92    1.036
  3     50.6165    689.5736 159.1573844 +15.4774045     19525.45     985.7285     5225.102 -10.7265   0.0548     8.70    8.044
  3     50.5587    678.2807 159.1573987 +15.4793467     10797.82     450.0458     5217.737 -10.0833   0.0453     5.35    3.159
  3     50.5674    702.7597 159.1573886 +15.4751368     19757.44     676.7136      5233.08 -10.7393   0.0372     8.11    7.343
  3     50.5760    746.9547 159.1573716 +15.4675362     37458.33     1293.701     5254.708 -11.4339   0.0375     9.78   10.735
  0    139.8088    699.7272 159.1414648 +15.4756879     71378.77     1927.694     5278.375 -12.1339   0.0293     9.75    1.622
  0    710.8802    689.8021 159.0395607 +15.4775569      47548.7     864.0658     5201.257 -11.6928   0.0197     3.61    1.059
  0    241.1876    691.6611 159.1233766 +15.4771072     19216.93     859.3539     5274.861 -10.7092   0.0486     4.06    1.029
  0   1267.1069    697.7457 158.9403004 +15.4763038     17137.16     963.6642     5186.416 -10.5848   0.0611     4.10    1.121
  0   1259.3212    694.2340 158.9416904 +15.4769065     9214.868     802.4279     5186.507  -9.9112   0.0946     3.54    1.130
  3     51.0000    722.4723 159.1573045 +15.4717468     16985.06     758.9852      5244.74 -10.5752   0.0485     8.78    6.699
  0    363.5799    706.6425 159.1015313 +15.4745677      9907.87     369.2904     5260.693  -9.9900   0.0405     0.80    1.009
  3     50.5461    716.7295 159.1573875 +15.4727343     11418.27     512.4433     5241.671 -10.1440   0.0487     5.22    3.670
  0    117.2574    715.8193 159.1454835 +15.4729130     11993.76     917.8466     5279.654 -10.1974   0.0831     6.05    1.262
  0   1550.6461    711.1320 158.8897013 +15.4740423      3850.94     312.2708     5144.587  -8.9639   0.0881     1.92    1.200
  0   1771.0291    716.9545 158.8503741 +15.4730646     9469.934     791.2604     5115.498  -9.9409   0.0907     3.79    1.008
  0   1549.5826    717.7966 158.8898903 +15.4728960     5247.461     349.4383      5146.36  -9.2999   0.0723     1.28    1.215
  0   1380.2173    738.7822 158.9201097 +15.4692640     43142.42     1620.644      5172.07 -11.5873   0.0408     7.62    1.288
  3     50.5894    767.4995 159.1573620 +15.4640030     30812.93     1052.959     5256.231 -11.2218   0.0371     8.13    6.363
  0   1692.1062    734.5232 158.8644557 +15.4700355     4334.368     312.6557     5137.681  -9.0923   0.0783     1.73    1.492
  0    243.8526    750.3546 159.1228821 +15.4670141     29495.46     932.2415     5301.295 -11.1744   0.0343     4.17    1.025
  0    175.1159    745.8894 159.1351490 +15.4677604     7032.045     685.2261     5302.985  -9.6177   0.1058     3.97    1.268
  3     50.4779    787.7461 159.1573748 +15.4605210     20899.03     668.2512     5256.951 -10.8003   0.0347     7.95    7.040
  0   1453.3596    778.6643 158.9070523 +15.4624155     8604.244     406.9409     5166.285  -9.8368   0.0514     2.01    1.558
  0   1779.9000    788.0972 158.8487845 +15.4608304     20408.04     970.6831     5120.608 -10.7745   0.0517     4.24    1.082
  0    379.4914    794.4160 159.0986654 +15.4594772     26811.55     1071.707      5287.42 -11.0708   0.0434     4.19    1.036
  3     51.0000    801.9963 159.1572766 +15.4580705     15832.74     895.8395     5258.871 -10.4989   0.0614     7.24    3.664
  0   1124.5596    789.4933 158.9657204 +15.4605004     1570.698     269.2198     5242.029  -7.9902   0.1861     0.41    1.018
  0   1530.7328    797.8502 158.8932435 +15.4591261     14798.84     372.5704     5157.854 -10.4256   0.0273     1.23    1.055
  3     50.9086    818.9955 159.1572870 +15.4551469     11794.57     891.3723      5259.72 -10.1792   0.0821     7.98    5.352
  3     50.6125    843.1905 159.1573313 +15.4509858     34148.23     1065.026     5260.918 -11.3334   0.0339     8.39    7.406
  3     50.7572    808.0003 159.1573178 +15.4570378     7518.615     640.3347      5259.17  -9.6903   0.0925     5.14    2.271
  3     50.6739    872.4375 159.1573101 +15.4459560        43295     1201.477     5262.215 -11.5911   0.0301    10.56   10.674
  3     50.6138    826.8087 159.1573368 +15.4538031     4136.116     404.2004     5260.119  -9.0415   0.1061     4.82    3.302
  0   1588.4236    849.8912 158.8829432 +15.4501832     264597.2     1073.934     5152.803 -13.5565   0.0044     3.88    1.060
  3     50.6086    830.8108 159.1573364 +15.4531149     12011.87     623.1891     5260.319 -10.1990   0.0563     4.46    2.566
  0   1400.8488    853.8179 158.9164109 +15.4494833     23669.71     1219.655     5195.716 -10.9355   0.0560     5.32    1.208
  0    611.0920    867.8726 159.0573203 +15.4469076     81884.78     920.5106     5282.444 -12.2830   0.0122     4.29    1.079
  0    831.5257    858.8593 159.0179919 +15.4485109     11736.51     416.0939     5274.597 -10.1738   0.0385     1.63    1.052
  3     50.7024    887.0081 159.1572999 +15.4434502     16406.98     774.3837     5262.638 -10.5376   0.0513     7.25    5.222
  0   1937.5776    861.5591 158.8206441 +15.4482090     1948.217     269.5684     5100.546  -8.2241   0.1503     0.39    1.009
  3     50.5580    907.2935 159.1573186 +15.4399615     21679.39     884.0464     5263.203 -10.8401   0.0443     8.75    8.467
  0    518.8306    880.1299 159.0737785 +15.4447753      3078.85     321.0977     5297.182  -8.7210   0.1133     1.53    1.290
  0   1966.8767    894.1705 158.8154143 +15.4426025      20843.5     916.9898     5098.602 -10.7974   0.0478     4.86    1.133
  0    101.7567    889.8281 159.1481899 +15.4429823     5144.946     340.7071      5318.74  -9.2785   0.0719     1.36    1.117
  0    549.5764    890.7574 159.0682899 +15.4429558     9709.545     360.9735     5297.893  -9.9680   0.0404     0.91    1.142
  0    800.0789    914.9264 159.0235894 +15.4388614     105430.8     939.6561     5304.497 -12.5574   0.0097     3.75    1.065
  3     50.6774    896.3320 159.1573011 +15.4418467     14239.56      713.421     5262.893 -10.3837   0.0544     4.28    1.979
  0   1533.3826    903.5782 158.8927570 +15.4409435     18909.62     549.7037     5170.196 -10.6917   0.0316     6.73    2.090
  3     51.0000    917.0002 159.1572363 +15.4382923     11104.93     588.2939     5263.486 -10.1138   0.0575     7.19    4.081
  0    137.4160    899.8524 159.1418242 +15.4412700     10925.86     814.0432     5326.604 -10.0961   0.0809     4.40    1.420
  0    949.0912    911.6811 158.9970037 +15.4394522     29579.34     1294.495     5299.433 -11.1775   0.0475     5.12    1.239
  0   1678.8667    904.5297 158.8667998 +15.4407966     8612.287      779.578     5143.466  -9.8378   0.0983     4.42    1.434
  0   1973.5684    899.5087 158.8142200 +15.4416848     2277.146     269.8718     5098.332  -8.3935   0.1287     0.29    1.011
  3     50.6781    932.5230 159.1572883 +15.4356227     27069.01     701.0371      5265.21 -11.0812   0.0281     8.43    7.103
  0     95.6138    920.1282 159.1492755 +15.4377693     12246.47     884.7711     5319.615 -10.2200   0.0785     3.96    1.229
  0   1089.3486    923.4312 158.9719771 +15.4374594     19589.93     942.3615     5290.952 -10.7301   0.0522     4.20    1.191
  3     51.0000    949.4718 159.1572250 +15.4327080     23747.91      1109.36     5270.753 -10.9391   0.0507     8.88    5.775
  3     50.8388    957.1776 159.1572510 +15.4313827     7640.936     763.7796     5273.524  -9.7079   0.1086     7.50    4.517
  3     50.5941   1003.7202 159.1572784 +15.4233783     35736.76     1070.991     5290.382 -11.3828   0.0325     9.56    9.959
  3     50.6494    985.1981 159.1572750 +15.4265637     17115.67     639.3969     5283.224 -10.5835   0.0406     7.67    5.847
  3     50.7146    965.5295 159.1572703 +15.4299463     6329.958     560.2143     5276.642  -9.5035   0.0961     6.40    3.906
  0   1678.6702    958.6592 158.8668290 +15.4314875      11553.8     401.3646     5148.559 -10.1568   0.0377     0.87    1.062
  0   1072.4958    959.5381 158.9749767 +15.4312465     9166.136     707.4395     5296.247  -9.9055   0.0838     3.66    1.327
  0   1884.7931    956.8205 158.8300547 +15.4318223     2633.408     281.0389     5116.104  -8.5513   0.1159     1.16    1.253
  0   1512.1075    986.4382 158.8965418 +15.4266906     441892.6     1143.357     5201.248 -14.1133   0.0028     3.84    1.053
  0    158.9251    961.6928 159.1379660 +15.4306417     6215.788     639.8284       5339.8  -9.4837   0.1118     2.55    1.106
  3     51.0000    972.4714 159.1572169 +15.4287525     8938.741     545.1729      5278.72  -9.8782   0.0662     6.63    2.809
  0     84.2371    970.1312 159.1512880 +15.4291661     13700.41     965.8746      5317.13 -10.3418   0.0766     4.92    1.249
  0   1536.1672    974.0872 158.8922510 +15.4288178     13895.38     861.2877     5189.343 -10.3572   0.0673     4.42    1.050
  0    799.7069    986.0573 159.0236387 +15.4266283     16662.29     797.2742     5323.162 -10.5543   0.0520     4.20    1.052
  0   1958.8433    981.9167 158.8168417 +15.4275115      7459.03     359.4193     5103.845  -9.6817   0.0523     1.34    1.076
  0    261.0401    987.7372 159.1197395 +15.4261948     7490.295      694.055     5350.136  -9.6862   0.1006     3.56    1.062
  0    167.5808   1000.8273 159.1364087 +15.4239142     6796.996     341.9111     5345.428  -9.5808   0.0546     1.00    1.139
  0    649.9739   1023.4647 159.0503422 +15.4201590     10797.51     787.8951     5326.041 -10.0833   0.0792     3.45    1.169
  0   1037.6293   2014.8838 158.9809825 +15.2497442     16759.14     762.8374     5155.546 -10.5606   0.0494     4.42    1.087
  0   1779.5768   2010.2550 158.8487281 +15.2506470     35917.64     1187.436     5055.338 -11.3883   0.0359     5.72    1.257
  0   1514.8153   1996.8710 158.8959247 +15.2529195     12652.39     423.7506     5108.182 -10.2554   0.0364     2.03    1.449
  0   1766.7798   1990.7805 158.8510110 +15.2539949     13183.36     355.0428     5058.224 -10.3001   0.0292     0.99    1.022
  0    462.5196   1984.5626 159.0835065 +15.2548227     2072.949     269.6835     5191.888  -8.2915   0.1413     0.12    1.037
  0   1782.4518   1978.4890 158.8482185 +15.2561102     18693.24     723.2806     5054.494 -10.6792   0.0420     5.02    1.243
  0   1937.9740   1965.2379 158.8204963 +15.2584015     6449.776     625.7574     5009.717  -9.5239   0.1054     3.19    1.633
  0   1007.7427   1972.4768 158.9863187 +15.2570313     2984.273     281.3493     5182.011  -8.6871   0.1024     1.37    1.428
  0   1072.0640   1962.9652 158.9748547 +15.2586796     2664.969      270.229     5192.589  -8.5642   0.1101     1.41    1.007
  0   1535.0339   1979.9412 158.8923228 +15.2558336     7553.874      359.485     5105.813  -9.6954   0.0517     1.31    1.036
  0     37.6458   1988.9531 159.1592417 +15.2539373     4867.241     313.0793     5277.038  -9.2182   0.0699     1.03    1.118
  0   1658.7528   1829.7671 158.8702855 +15.2816744     34153.21     943.0355     5082.052 -11.3336   0.0300     4.54    1.156
  0    980.3326   1838.5935 158.9912332 +15.2800504     6827.669     358.9821     5232.037  -9.5857   0.0571     1.77    1.058
  0   1141.6945   1754.0251 158.9624815 +15.2946253     332741.6     1092.343      5219.53 -13.8053   0.0036     3.85    1.060
  0    108.7954   1793.9719 159.1466254 +15.2874928     24905.39     379.2583     5250.502 -10.9907   0.0165     1.35    1.128
  0   1156.2738   1784.9963 158.9598764 +15.2893016     5976.284     601.2177     5219.244  -9.4411   0.1093     3.76    1.082
  0   1801.4958   1796.4727 158.8448401 +15.2874143     5297.993     559.7559     5039.391  -9.3103   0.1147     0.95    1.012
  0   1723.8688   1777.7550 158.8586818 +15.2906260     12754.15     363.0656      5068.12 -10.2641   0.0309     1.05    1.046
  0   1405.3611   1987.6464 158.9154370 +15.2544910      26294.1     754.1487     5125.392 -11.0496   0.0311     4.42    1.046
  0    306.5635   1736.5970 159.1113842 +15.2974218     2631.383     270.1981     5214.938  -8.5505   0.1115     0.30    1.013
  0   1011.7872   1923.8156 158.9856078 +15.2654006     34121.26      870.548      5208.42 -11.3326   0.0277     4.27    1.189
  0    399.5316   1903.9481 159.0947586 +15.2686687      3205.08     311.7559      5195.59  -8.7646   0.1056     0.12    1.477
  0    236.1616   1598.8424 159.1239808 +15.3210909     6480.031     635.2457     5274.727  -9.5289   0.1065     3.92    1.345
  0    453.9329   1905.4900 159.0850601 +15.2684189     8657.143     719.8207     5198.643  -9.8434   0.0903     3.73    1.601
  4   1849.2208   1581.7976 158.8363493 +15.3243374      4269738     2185.651     5084.719 -16.5760   0.0006     5.63    1.135
  0   1631.7776   1645.7649 158.8751159 +15.3133155     3289.897     281.6194     5153.124  -8.7930   0.0930     1.09    1.268
  0   2013.4597   1711.4634 158.8070551 +15.3020494     2021.876     329.4734     5012.862  -8.2644   0.1770     0.52    1.043
  0   1014.2950   1684.4326 158.9852103 +15.3065693     12843.41     660.7397     5246.226 -10.2717   0.0559     4.58    1.594
  0   1629.5507   1597.3461 158.8755185 +15.3216422     62292.76     947.2808     5160.146 -11.9861   0.0165     4.06    1.084
  4   1034.6071   1749.7722 158.9815753 +15.2953365      2163838     1630.909     5237.068 -15.8381   0.0008     4.37    1.024
  0   1020.1476   1684.4761 158.9841667 +15.3065630     -1778.51     678.2783     5245.611  99.0000  99.0000     5.47    1.790
  0    377.8874   1602.8595 159.0987078 +15.3204425     3962.905      339.843     5273.725  -8.9950   0.0931     1.48    1.197
  0    245.5394   1643.5978 159.1222942 +15.3133969     2362.578     364.1724      5259.97  -8.4335   0.1674     0.29    1.038
  0   1583.5459   1637.5009 158.8837170 +15.3147311     1763.086     269.3976     5166.019  -8.1157   0.1659     0.12    1.004
  0    143.5065   1640.5172 159.1404885 +15.3138946      26437.7      990.492     5279.736 -11.0556   0.0407     4.82    1.084
  0   1287.1177   1606.2537 158.9365782 +15.3200635     427876.8     1140.303     5201.999 -14.0783   0.0029     3.87    1.030
  0     70.3896   1804.0978 159.1534690 +15.2857387      5471.58     358.0412     5250.634  -9.3453   0.0711     1.88    1.223
  0   1260.9788   1548.9087 158.9412489 +15.3299212     6489.519     358.7477      5221.42  -9.5305   0.0600     1.34    1.075
  0    105.9930   1710.7234 159.1471534 +15.3018086     30942.71     1083.748     5266.719 -11.2264   0.0380     4.75    1.165
  0   1565.8324   1752.2939 158.8868611 +15.2949873     36799.97     1060.024     5133.492 -11.4146   0.0313     4.24    1.089
  0    455.5211   1523.0879 159.0848878 +15.3341834     3892.348     312.3038     5312.488  -8.9755   0.0871     1.53    1.484
  0    938.8551   1530.1093 158.9986951 +15.3330940     7851.614     667.8646      5281.24  -9.7374   0.0924     4.46    1.321
  0    846.2328   1440.6195 159.0152327 +15.3484641     503247.6     1143.641     5311.815 -14.2545   0.0025     3.75    1.024
  0    676.2083   1898.4861 159.0454370 +15.2696818        12924     946.9311     5225.522 -10.2785   0.0796     5.06    1.360
  0    954.9210   1422.5088 158.9958533 +15.3516022     39721.12     947.6607     5301.724 -11.4976   0.0259     3.83    1.046
  0    972.7080   1954.9540 158.9925677 +15.2600377     2967.114     311.5659     5190.628  -8.6808   0.1140     1.10    1.081
  0   1279.5398   1479.5649 158.9379507 +15.3418498     2958.406      270.499     5242.828  -8.6776   0.0993     0.24    1.019
  0   1485.5851   1480.9365 158.9012058 +15.3416443     45375.54     1087.056     5213.702 -11.6421   0.0260     4.02    1.043
  0   1733.8330   1363.3340 158.8569468 +15.3618979      8173.46     533.7444      5142.52  -9.7810   0.0709     3.50    1.104
  0    923.4454   1456.4406 159.0014592 +15.3457601     10592.69     622.6224     5302.356 -10.0625   0.0638     3.25    1.020
  0    248.6732   1369.6675 159.1218233 +15.3605075     757545.3     1253.736     5352.301 -14.6985   0.0018     3.88    1.027
  0    139.0886   1385.4076 159.1413621 +15.3577660     606695.7     1223.439     5352.108 -14.4574   0.0022     3.96    1.032
  0   1787.7612   1415.0842 158.8473240 +15.3530030     4863.223     340.5013     5124.042  -9.2173   0.0760     1.27    1.167
  0    148.8734   1411.9911 159.1396082 +15.3531974      6852.13      358.999     5344.282  -9.5896   0.0569     1.38    1.040
  0   1618.6814   1141.8315 158.8775101 +15.3999792      13861.1     729.8497     5184.093 -10.3545   0.0572     1.23    1.245
  0    932.1207   1179.8224 158.9999728 +15.3933341     10337.57     353.0432     5328.227 -10.0360   0.0371     1.50    1.162
  0    372.0017   1126.8839 159.0999013 +15.4022978     16294.58     439.6888     5370.784 -10.5301   0.0293     2.53    1.456
  0   1271.1592   1083.9136 158.9395120 +15.4098918     14061.97      921.654     5283.891 -10.3701   0.0712     4.53    1.374
  0   1041.0106   1476.6981 158.9804889 +15.3423002     7683.534     755.9305     5274.823  -9.7139   0.1068     4.19    1.067
  0    340.6098   1628.9368 159.1053469 +15.3159469     21210.26     1021.859      5260.91 -10.8164   0.0523     4.07    1.124
  0   1724.8392   1225.6387 158.8585648 +15.3855775     19327.29     1196.505     5167.397 -10.7154   0.0672     6.64    1.398
  0   1998.0173   2005.7655 158.8097905 +15.2514357     13260.33     717.2567     4918.187 -10.3064   0.0587     3.21    1.673
  0    347.5582   1357.6704 159.1041910 +15.3626005     3870.245     282.1315     5345.664  -8.9693   0.0792     0.81    1.315
  0    909.9559   1367.0431 159.0038848 +15.3611316     75082.05     931.5872     5312.515 -12.1888   0.0135     3.67    1.012
  0    415.7264   1307.2125 159.0920481 +15.3712978     20360.33     1221.428     5355.342 -10.7720   0.0651     7.71    1.684
  0   1768.5923   1328.4874 158.8507508 +15.3678940      1129412     1389.292     5138.243 -15.1321   0.0013     4.05    1.070
  0   1080.5155   1332.2321 158.9734724 +15.3671528       7861.3     723.6855     5309.372  -9.7387   0.1000     3.02    1.348
  0    757.4856   1337.4891 159.0310851 +15.3661799     4945.887     600.7912     5315.449  -9.2356   0.1319     2.92    1.033
  0    400.5988   1314.3488 159.0947441 +15.3700663     171180.7     1037.779     5355.695 -13.0836   0.0066     3.80    1.035
  0   1740.3020   1275.5741 158.8558018 +15.3769912     535225.4     1238.121     5158.084 -14.3213   0.0025     4.03    1.065
  0    843.6981   1235.6328 159.0157324 +15.3837167     41863.57     951.3682     5321.498 -11.5546   0.0247     3.68    1.013
  0   1802.4539   1233.0872 158.8447200 +15.3843038       103259     1003.665     5149.502 -12.5348   0.0106     4.21    1.072
  0    763.8582   1217.2670 159.0299779 +15.3868569     20566.34     835.0669     5323.124 -10.7829   0.0441     3.90    1.102
  0    494.1888   1218.3774 159.0780789 +15.3865974     90834.11     2063.357     5347.014 -12.3956   0.0247     8.40    1.110
  0   1210.5125   1253.0261 158.9503008 +15.3807980      8914.36     806.0496     5301.312  -9.8752   0.0982     4.95    1.558
  0     10.5615   1257.9570 159.1643297 +15.3796418     20051.78     694.2529     5282.681 -10.7554   0.0376     4.21    1.079
  0    595.6063   1220.7610 159.0599883 +15.3862145      3170.47     356.4388     5330.661  -8.7528   0.1221     0.96    1.443
  0    797.7897   1516.0925 159.0238540 +15.3354735     16841.09      899.447     5304.092 -10.5659   0.0580     4.56    1.050
  0   1229.6143   1201.6537 158.9469027 +15.3896362     148968.6      941.642     5301.382 -12.9327   0.0069     3.83    1.055
  0    816.9465   1512.3093 159.0204387 +15.3361285     59610.66     1809.416     5303.796 -11.9383   0.0330     8.16    1.414
  4     56.8797   1166.6979 159.1561001 +15.3953519      7061870     2806.241     5343.693 -17.1223   0.0004     6.60    1.027
  0    228.8596   1180.6926 159.1254182 +15.3930008     3692.833     312.1448     5375.388  -8.9184   0.0918     1.51    1.113
  4   1374.6018   1767.5455 158.9209538 +15.2923385      2403222     1705.991     5157.944 -15.9520   0.0008     4.55    1.045
  0    581.4884   1173.4922 159.0625194 +15.3943400     5904.302     639.7073     5335.165  -9.4279   0.1177    -0.13    1.007
  0    512.0245   1548.4741 159.0748046 +15.3298331     14964.42     789.2096     5308.525 -10.4376   0.0573     4.73    1.153
  0    294.0320   1538.9921 159.1136805 +15.3314014     4392.305     569.9348     5293.365  -9.1067   0.1409     3.63    1.005
  0   1370.9803   1937.4152 158.9215733 +15.2631245     597805.4     1255.399     5141.346 -14.4414   0.0023     4.19    1.111
  0    797.5250   1067.1427 159.0240086 +15.4126829     3846.177      312.267     5330.961  -8.9626   0.0882     2.00    1.482
  0    691.5151   1144.4976 159.0429004 +15.3993543     2003.217     269.6192     5332.881  -8.2543   0.1462    -0.02    1.019
  0   1225.5630   1094.5551 158.9476442 +15.4080541      2610.89     270.1793      5303.35  -8.5420   0.1124     0.30    1.020
  0    161.5622   1752.7003 159.1372316 +15.2946076     36522.33     807.1565     5247.977 -11.4064   0.0240     4.56    1.088
  0   1840.9481   1119.2379 158.8378634 +15.4038866     852052.2     1302.514     5156.073 -14.8262   0.0017     4.11    1.059
  0   1798.9540   1120.8500 158.8453544 +15.4036058     230540.5     1077.168     5164.051 -13.4069   0.0051     4.07    1.109
  0    928.4818   1088.4871 159.0006420 +15.4090411     4568.633     559.4316      5327.13  -9.1495   0.1330     0.36    1.017
  0   1709.8911   1102.8370 158.8612439 +15.4066952     50711.68     1051.985     5173.705 -11.7628   0.0225     4.11    1.044
  0    567.7359   1089.7642 159.0649954 +15.4087358      3403.82       281.72     5342.444  -8.8299   0.0899     1.08    1.243
  0   1128.9156   1070.4814 158.9648897 +15.4121772     3183.502     311.7387     5326.556  -8.7573   0.1063     1.45    1.457
  0   1906.0057   1076.4083 158.8262612 +15.4112574     584398.9     1259.874     5133.306 -14.4168   0.0023     4.19    1.063
  0   1237.8649   1375.1151 158.9454009 +15.3598060     54839.91      957.879     5265.268 -11.8477   0.0190     3.81    1.116
  0    850.3229   1073.7429 159.0145882 +15.4115597     3518.746     281.8214     5329.508  -8.8660   0.0870     2.18    1.276
  0   1557.9875   1388.7751 158.8883057 +15.3575032     696935.9     1234.413     5195.286 -14.6080   0.0019     3.92    1.041
  0     55.8461   1069.9880 159.1563182 +15.4119835     23143.12     1081.956     5319.751 -10.9111   0.0508     4.22    1.046
  0   1024.6584   1952.7000 158.9833074 +15.2604358     12339.61      573.393     5195.952 -10.2283   0.0505     4.75    1.048
  0   1154.5247   1422.4724 158.9602557 +15.3516471     5224.707     559.7233     5271.233  -9.2952   0.1163     1.95    1.003
  0   1900.0629   1435.7400 158.8272943 +15.3494599     30120.95     1091.799     5105.328 -11.1972   0.0394     4.63    1.093
  0   1000.8562   1633.1389 158.9876172 +15.3153880     11024.46     821.3799     5249.841 -10.1059   0.0809     4.06    1.236
  0    542.2098   1382.3319 159.0694679 +15.3584139     27519.68     912.2731     5333.846 -11.0991   0.0360     3.65    1.097
  0   1467.1981   1941.0085 158.9044205 +15.2625202      9210.15     783.5905     5121.121  -9.9107   0.0924     2.73    1.628
  0    648.9377   1045.8127 159.0505213 +15.4163153     7285.869     359.2995     5331.978  -9.6562   0.0536     1.51    1.067
  0    972.7935   1965.1915 158.9925503 +15.2582771     78095.01     976.2178     5184.653 -12.2316   0.0136     4.21    1.044
  0   1614.0526   1991.8470 158.8782356 +15.2537956     19071.34     886.6878     5088.391 -10.7010   0.0505     5.24    1.284
  0    931.1423   1876.5775 158.9999945 +15.2735079     28096.56     661.9598     5231.347 -11.1216   0.0256     8.02    3.094
  0   1945.1902   1585.9343 158.8192360 +15.3236331      51648.1     648.1002     5050.187 -11.7826   0.0136     6.28    2.537
  0    887.9763   1620.2041 159.0077477 +15.3175888     31943.37     923.2375     5267.542 -11.2610   0.0314     3.94    1.055
