#   1 FLAGS                  Extraction flags                                          
#   2 X_IMAGE                Object position along x                                    [pixel]
#   3 Y_IMAGE                Object position along y                                    [pixel]
#   4 ALPHA_J2000            Right ascension of barycenter (J2000)                      [deg]
#   5 DELTA_J2000            Declination of barycenter (J2000)                          [deg]
#   6 FLUX_AUTO              Flux within a Kron-like elliptical aperture                [count]
#   7 FLUXERR_AUTO           RMS error for AUTO flux                                    [count]
#   8 BACKGROUND             Background at centroid position                            [count]
#   9 MAG_AUTO               Kron-like elliptical aperture magnitude                    [mag]
#  10 MAGERR_AUTO            RMS error for AUTO magnitude                               [mag]
#  11 FWHM_IMAGE             FWHM assuming a gaussian core                              [pixel]
#  12 ELONGATION             A_IMAGE/B_IMAGE                                           
 19     51.2831    358.1014 159.1573995 +15.5343438       107019     2745.863     4948.658 -12.5737   0.0279    35.45  130.692
  0    232.8137     37.2482 159.1251167 +15.5895915     286049.6     1164.809     4881.219 -13.6411   0.0044     4.33    1.036
  4    246.4627     20.7998 159.1226859 +15.5924251      1149513     1268.165     4878.718 -15.1513   0.0012     4.14    1.116
  0   1218.7399     22.2793 158.9490856 +15.5924520     20260.66     627.1459     4942.747 -10.7666   0.0336     3.64    1.071
  3     51.4248     63.4758 159.1574925 +15.5850130     67278.98     2018.985     4812.438 -12.0697   0.0326    10.55    7.387
  2     51.3522     47.3915 159.1575119 +15.5877791     333641.5     676.3601     4791.158 -13.8082   0.0022     6.50    2.138
  0    276.3123     32.0091 159.1173522 +15.5905080     15961.52     377.9972     4905.413 -10.5077   0.0257     1.31    1.018
  0   2010.8829     63.7762 158.8076441 +15.5854440     28066.04     1032.716     4871.107 -11.1205   0.0400     4.98    1.626
  3     51.0000     83.4905 159.1575603 +15.5815707      17440.1      1408.62      4839.04 -10.6039   0.0877    11.74   10.167
  0    881.4058     67.0002 159.0093042 +15.5846788     905330.1     1187.936     5002.959 -14.8920   0.0014     3.50    1.044
  0    263.4897     26.4636 159.1196437 +15.5914572     4088.118     418.0409     4893.703  -9.0288   0.1111     0.04    1.022
  0     51.5103     32.4809 159.1574896 +15.5903435     16535.26     842.5668     4772.989 -10.5460   0.0553     0.13    1.025
  0   1592.5610     42.8201 158.8823363 +15.5889914     24823.09     1251.746     4891.157 -10.9871   0.0548     5.77    1.171
  0    546.5626     46.3126 159.0690949 +15.5881388     9503.775     660.7109     4978.615  -9.9447   0.0755     3.28    1.016
  0    684.4797     52.7567 159.0444684 +15.5870728     20236.31     811.0388     4989.737 -10.7653   0.0435     3.90    1.039
  0   1631.4592     42.4513 158.8753912 +15.5890611     2095.091     256.5423     4883.301  -8.3030   0.1330     0.31    1.005
  0   1917.7418     53.8524 158.8242750 +15.5871403     14424.83     761.1345     4924.251 -10.3978   0.0573     2.51    1.202
  3     51.0000    103.5182 159.1575522 +15.5781264     15776.96     1021.859     4859.078 -10.4951   0.0703    13.09   11.591
  0    339.9577     69.0683 159.1059751 +15.5841570     49862.15      751.379     4936.815 -11.7444   0.0164     3.72    1.114
  0   2001.4858     58.9778 158.8093224 +15.5862682     12778.22     649.5961      4877.96 -10.2662   0.0552     2.92    2.547
  0   1527.0187     64.8339 158.8940347 +15.5851943     7524.225     722.4377     4905.566  -9.6912   0.1043     4.35    1.239
  0   1980.5077     68.4976 158.8130669 +15.5846288     11246.93     644.8377     4892.937 -10.1276   0.0623     2.92    1.025
  0   1711.0359     78.2585 158.8611775 +15.5829153     9525.282     794.2698      4874.74  -9.9472   0.0906     4.67    1.627
  3     51.0000    129.9992 159.1575416 +15.5735723     12786.08      1013.17     4864.341 -10.2668   0.0861    12.99   10.277
  0   1957.9768     75.7601 158.8170887 +15.5833773     10675.88     661.1521      4901.77 -10.0710   0.0673     3.22    1.656
  0    480.2745     79.2446 159.0809193 +15.5824540     4595.625     323.7923     4976.691  -9.1559   0.0765     1.36    1.096
  0    857.8952    102.8384 159.0134918 +15.5785090     102169.8     761.4453     5011.663 -12.5233   0.0081     3.33    1.004
  3     51.0000    175.4894 159.1575233 +15.5657489     27710.99     1110.699     4873.343 -11.1066   0.0435    14.26   15.925
  0   1396.6865    101.6518 158.9172973 +15.5788384     30499.93     420.8362     4948.729 -11.2107   0.0150     2.17    1.064
  0    947.3024    103.2440 158.9975291 +15.5784630     7903.836     326.3239     4999.043  -9.7446   0.0448     1.29    1.183
  0   1071.1206    115.3473 158.9754198 +15.5764123     21236.59     685.1017     4993.019 -10.8177   0.0350     3.64    1.150
  0   2003.6704    114.6709 158.8089262 +15.5766904      17465.4      789.949     4883.935 -10.6054   0.0491     4.03    1.754
  3     51.0000    155.0329 159.1575315 +15.5692670     24184.75     921.2304     4869.403 -10.9589   0.0414    11.78   10.214
  2   2017.4939    122.4999 158.8064574 +15.5753455     19260.89     790.5143     4884.223 -10.7117   0.0446     3.59    1.843
  0    273.4908    124.9949 159.1178217 +15.5745155     4637.518      297.774     4936.208  -9.1657   0.0697     1.41    1.481
  0   1553.0084    143.4195 158.8893804 +15.5716837     97408.44     917.5588     4915.123 -12.4715   0.0102     3.70    1.064
  0   1351.9946    144.6407 158.9252675 +15.5714364     89953.55     838.6086     4969.288 -12.3850   0.0101     3.53    1.016
  0    480.2397    145.6546 159.0809030 +15.5710329     30983.85     1318.052     4982.498 -11.2278   0.0462     8.08    1.675
  0    397.4872    138.4376 159.0956795 +15.5722466     2966.515     296.3748     4956.927  -8.6806   0.1085     0.32    1.015
  0   1563.4099    144.4123 158.8875232 +15.5715148     11291.04      367.642      4912.79 -10.1318   0.0354     0.82    1.014
  3     51.0000    210.9283 159.1575091 +15.5596542     19183.97     1108.787      4880.35 -10.7073   0.0628    14.20   12.613
  0     34.6921    169.2157 159.1604372 +15.5668216      82385.1     1134.831     4867.015 -12.2896   0.0150     4.53    1.215
  0    146.4739    149.7963 159.1404888 +15.5702039     8210.514     358.0927     4911.489  -9.7859   0.0474     1.36    1.067
  0   2026.9363    165.0604 158.8047670 +15.5680270     65483.37     881.7325     4882.697 -12.0403   0.0146     4.23    1.046
  0   1339.3202    168.0631 158.9275254 +15.5674057     27983.74     810.0869     4976.488 -11.1173   0.0314     3.66    1.130
  0   1003.4458    181.4842 158.9874851 +15.5650216     3139.794     322.6718     5002.173  -8.7423   0.1116     0.34    1.009
  3     51.0000    231.0043 159.1575010 +15.5562016     11364.53      863.209     4884.339 -10.1389   0.0825    11.10    7.901
  0    316.4618    192.4667 159.1101255 +15.5629269     3179.344     257.5915     4941.022  -8.7558   0.0880     0.20    1.005
  0   1476.1636    216.0386 158.9030859 +15.5591812     8498.969     719.0296     4953.075  -9.8234   0.0919     3.91    2.008
  0   1355.5461    252.6286 158.9246111 +15.5528654     806730.1     1143.749     4978.997 -14.7668   0.0015     3.50    1.052
  0   1532.9530    243.8803 158.8929427 +15.5544031     98920.19     831.5843     4942.937 -12.4882   0.0091     3.44    1.075
  0   1944.8021    225.4819 158.8194230 +15.5576268     4467.752     297.6322     4868.288  -9.1252   0.0723     3.54    1.448
  0   1059.4696    240.0443 158.9774686 +15.5549643     2677.875     296.1324     5000.973  -8.5695   0.1201     1.55    1.488
  0    690.6063    267.3445 159.0433088 +15.5501701     272445.2     926.7296     5021.219 -13.5882   0.0037     3.36    1.033
  3     51.0000    283.4862 159.1574800 +15.5471759     13449.98     838.4427     4895.292 -10.3218   0.0677    10.77    8.454
  0   1094.1886    254.8165 158.9712670 +15.5524321     7874.151     684.1885     5002.029  -9.7405   0.0944     3.92    1.362
  0   1564.9800    258.8568 158.8872227 +15.5518330     6312.275     567.0986       4931.2  -9.5005   0.0976     4.29    1.232
  0   1437.8011    256.0132 158.9099266 +15.5522993     10501.11      831.098     4966.417 -10.0531   0.0860     4.04    1.230
  0    949.2794    261.8879 158.9971337 +15.5511800     15378.95     757.8936     5013.074 -10.4673   0.0535     3.62    1.064
  3     51.0000    293.4344 159.1574760 +15.5454650     20257.31     837.2427     4899.573 -10.7665   0.0449     9.08    5.404
  0    450.2224    276.9866 159.0862171 +15.5484367     2613.098      246.321     4982.145  -8.5429   0.1024     1.42    1.587
  0   1381.2866    277.9408 158.9200108 +15.5485173     6188.341     625.8661     4976.243  -9.4789   0.1098     3.11    1.089
  2     46.4441    297.0522 159.1582878 +15.5448410     16295.23     775.7878     4897.532 -10.5302   0.0517     8.68    1.321
  0   1698.5903    298.9120 158.8633651 +15.5449657     18164.05     1081.447      4872.59 -10.6480   0.0647     6.48    1.404
  0    848.4761    292.4195 159.0151198 +15.5459025     2092.356     256.5396     5021.877  -8.3016   0.1332     0.38    1.022
  0    440.7454    302.3425 159.0879002 +15.5440729     2873.805     267.5799     4987.444  -8.6461   0.1011     1.56    1.537
  0   1275.5148    305.4529 158.9388864 +15.5437643     2880.438     257.3027     4993.393  -8.6486   0.0970     0.51    1.007
  0    713.0403    316.1949 159.0392892 +15.5417754     7935.608     342.4885     5031.229  -9.7490   0.0469     1.52    1.068
  0   1893.9180    319.8666 158.8284948 +15.5413886     13304.48     376.2446     4876.481 -10.3100   0.0307     2.17    1.230
  3     51.3631    404.1815 159.1573667 +15.5264190     34631.59     1162.087     4983.923 -11.3487   0.0364    14.78   25.421
  0   1708.7577    349.2705 158.8615423 +15.5363066      79194.7     964.3702     4906.121 -12.2467   0.0132     3.78    1.093
  0   1312.2949    356.8648 158.9323098 +15.5349302     29871.93     823.8754     4999.473 -11.1882   0.0300     3.48    1.094
  0    726.7573    364.3666 159.0368262 +15.5334949     26394.18     816.2384     5043.176 -11.0538   0.0336     3.43    1.124
  3     51.3316    481.6616 159.1573413 +15.5130941     32677.13     827.9879     5030.281 -11.2856   0.0275    10.51   10.995
  0    659.1700    419.9412 159.0488731 +15.5239173     202180.1     907.6729     5046.994 -13.2643   0.0049     3.21    1.009
  0    778.6777    425.6429 159.0275405 +15.5229715     438134.5     1011.051     5051.673 -14.1040   0.0025     3.25    1.040
  0    288.1674    406.3802 159.1150984 +15.5261285     8051.736     595.6946     5023.858  -9.7647   0.0803     3.80    1.237
  0   1742.9562    402.4355 158.8554299 +15.5271684     3089.896     362.0504     4926.526  -8.7249   0.1272     1.88    1.516
  3     51.1657    436.9393 159.1573888 +15.5207853     15644.19     607.8031      5005.16 -10.4859   0.0422     7.90    6.130
 24      1.5181    405.5127 159.1662631 +15.5261707     5673.145     431.6735     4954.968  -9.3846   0.0826     2.92    1.007
  0    333.9824    410.9798 159.1069191 +15.5253535         7261     341.9982      5029.69  -9.6525   0.0512     1.77    1.104
  0    890.0998    412.8639 159.0076563 +15.5251998     4798.572     511.3451     5038.887  -9.2028   0.1157     3.25    1.233
  0   1249.5101    415.5266 158.9435039 +15.5248284     4052.889     531.6891     5014.382  -9.0194   0.1425     0.23    1.038
  0    102.3044    423.2466 159.1482666 +15.5231598     9786.927      696.605     5023.137  -9.9766   0.0773     3.75    1.219
  0    908.4652    420.8287 159.0043760 +15.5238349     4585.561     297.7306     5038.375  -9.1535   0.0705     2.42    1.460
  0   1613.7583    426.8945 158.8784867 +15.5229421     4425.766     323.6617       4962.3  -9.1150   0.0794     1.83    1.198
  3     51.0000    449.5006 159.1574133 +15.5186250     10052.09     524.2926     5012.486 -10.0056   0.0566     6.59    2.911
  2     51.0000    456.4809 159.1574105 +15.5174246     20507.57      1177.54     5015.867 -10.7798   0.0624     7.25    3.878
  0   1955.8405    449.3260 158.8174261 +15.5191316     9102.143      773.478      4907.21  -9.8979   0.0923     3.51    1.332
  4   1327.2999    509.0461 158.9295992 +15.5087612      1722100      1446.66     5033.568 -15.5901   0.0009     4.03    1.057
  0   2038.5453    461.4455 158.8026631 +15.5170562     2824.437     257.2485     4882.599  -8.6273   0.0989     0.54    1.015
  0    167.3961    496.5464 159.1366204 +15.5105782     536725.8     1058.231     5077.095 -14.3244   0.0021     3.49    1.048
  0    541.4885    472.4279 159.0698609 +15.5148544     2448.655     256.8849     5045.433  -8.4723   0.1139     0.24    1.010
  3     51.0000    495.9786 159.1573947 +15.5106318     4561.273      505.923      5034.83  -9.1477   0.1205     6.50    3.720
  3     51.1519    595.8856 159.1573275 +15.4934500     38232.39     1400.775     5070.952 -11.4561   0.0398    15.47   15.802
  0    902.8501    486.9198 159.0053601 +15.5124671     7312.923     668.0151      5051.99  -9.6602   0.0992     4.10    1.232
  0    736.0137    484.5184 159.0351379 +15.5128340     5101.205     547.1816     5057.095  -9.2692   0.1165     3.71    1.588
  0    643.5440    489.2840 159.0516405 +15.5119871     3363.394     268.0346     5054.616  -8.8169   0.0865     1.19    1.390
  0   2035.8489    486.4577 158.8031417 +15.5127544     3737.816     287.7918     4894.036  -8.9315   0.0836     1.82    1.455
  3     51.0000    503.0373 159.1573919 +15.5094179     6112.177     630.1334     5037.104  -9.4655   0.1120     7.96    4.092
  3     51.0000    539.5215 159.1573772 +15.5031434     15597.55      915.967     5049.125 -10.4826   0.0638    11.72   11.306
  3     51.0000    513.9595 159.1573875 +15.5075395     5662.169     651.0242     5040.678  -9.3825   0.1249     8.30    4.247
  0   1784.1921    502.8459 158.8480552 +15.5099057      10684.8      631.936     4950.485 -10.0719   0.0642     3.38    1.152
  3     51.0000    521.4875 159.1573845 +15.5062448     3644.542     489.1923     5042.952  -8.9041   0.1458     6.36    2.465
  3     51.0000    566.0186 159.1573666 +15.4985865     26805.21     1313.159     5059.068 -11.0705   0.0532    12.07   11.307
  4    930.8185    555.5023 159.0003498 +15.5006797      1023980     1214.751     5069.125 -15.0257   0.0013     3.46    1.055
  3     51.0000    526.0189 159.1573826 +15.5054655     6999.335     576.8344     5044.577  -9.6126   0.0895     6.01    2.688
  0    323.4980    527.4958 159.1087485 +15.5053116     4310.583     531.8097     5083.312  -9.0863   0.1340    -0.49    1.027
  0    678.5367    530.5892 159.0453823 +15.5048939     2190.427     256.6347     5065.879  -8.3513   0.1272     0.83    1.016
  0   1422.1429    551.8535 158.9126634 +15.5014179     6403.609     490.5933     5035.318  -9.5161   0.0832     3.98    1.266
  0   1204.7482    579.0174 158.9514559 +15.4967016     152883.8     850.7512     5056.538 -12.9609   0.0060     3.26    1.064
  0     75.2174    595.4021 159.1530329 +15.4935425     83589.91     1756.659      5085.37 -12.3054   0.0228     5.63    1.029
  0   1263.2711    582.2792 158.9410108 +15.4961533     16373.81     371.0652      5057.27 -10.5354   0.0246     1.26    1.102
  3     51.0000    624.5080 159.1573431 +15.4885276     40243.01     1595.655     5084.434 -11.5117   0.0431    10.26    7.254
  0    885.4114    619.5093 159.0084359 +15.4896598     22209.99     863.2079     5082.295 -10.8664   0.0422     3.54    1.072
  3     51.0000    642.0229 159.1573361 +15.4855154     15254.77     757.8529     5093.286 -10.4585   0.0540     9.72    6.561
  2    529.0020    647.9946 159.0720316 +15.4846567     15309.06     970.2614     5094.066 -10.4624   0.0688     5.28    1.457
  0    454.3343    636.0615 159.0853606 +15.4866848       8858.5     335.2013     5114.254  -9.8684   0.0411     1.38    1.035
  0   1623.4620    639.0645 158.8767192 +15.4864549     6188.509      349.037     5026.636  -9.4790   0.0613     1.55    1.323
  3     51.0000    653.9873 159.1573313 +15.4834578     13206.77     597.8434     5099.534 -10.3020   0.0492     7.71    3.637
  3     51.0000    663.4669 159.1573275 +15.4818275     8358.582     800.6743     5104.221  -9.8053   0.1040     8.11    4.666
  3     51.0000    675.0316 159.1573229 +15.4798386     9399.059     631.4297     5110.468  -9.9327   0.0730     8.10    4.385
  0   1020.6426    669.2881 158.9842895 +15.4811337     3118.053     257.5323     5107.017  -8.7347   0.0897     3.26    1.418
  3     51.0000    688.0502 159.1573176 +15.4775997     8747.246     631.1729     5117.227  -9.8547   0.0784     8.14    4.841
  0   1207.4938    669.5453 158.9509452 +15.4811332     5311.808     532.2778     5093.523  -9.3131   0.1088     0.72    1.011
  3     51.0000    680.9908 159.1573205 +15.4788137     4382.742     484.0235     5113.587  -9.1044   0.1199     5.19    2.274
  3     51.0000    700.5153 159.1573126 +15.4754560     10414.38     685.1115     5123.986 -10.0441   0.0714     8.84    5.524
  0    710.8771    689.7140 159.0395622 +15.4775373     49805.85     736.8527     5104.553 -11.7432   0.0161     3.13    1.085
  0    139.7311    699.5185 159.1414792 +15.4756611      70515.3      1740.91     5168.732 -12.1207   0.0268     7.97    1.616
  3     51.1203    711.2844 159.1572869 +15.4736040     8280.885     859.1845     5129.186  -9.7952   0.1127     9.49    6.934
  0    241.2085    691.7277 159.1233737 +15.4770381     18558.92     622.1476     5166.979 -10.6714   0.0364     3.43    1.207
  0   1259.2897    694.4700 158.9416965 +15.4768580     9934.199     830.9283     5094.244  -9.9928   0.0908     3.77    1.009
  0   1267.0376    697.8237 158.9403131 +15.4762829     15214.28     736.1624     5093.975 -10.4556   0.0525     3.65    1.118
  0   1008.3336    703.6496 158.9864773 +15.4752212     7801.268     350.1845     5123.311  -9.7304   0.0487     1.53    1.151
  0    718.4146    699.5490 159.0382141 +15.4758481     1573.292     256.0358     5109.816  -7.9920   0.1767     0.67    1.028
  3     51.0000    727.0119 159.1573020 +15.4708991     14062.18     705.8192     5137.505 -10.3701   0.0545     9.15    6.123
  0    117.0535    715.6649 159.1455197 +15.4728758     14763.57     909.8271     5168.533 -10.4230   0.0669     4.23    1.330
  0   1771.3503    717.0715 158.8503160 +15.4730616     8846.446     741.3246     5021.534  -9.8669   0.0910     3.79    1.257
  0   1379.8538    738.9531 158.9201727 +15.4692325     45249.58     1438.129     5079.569 -11.6390   0.0345     6.32    1.360
  3     51.0000    738.4898 159.1572974 +15.4689252     13173.98     670.1942     5142.789 -10.2993   0.0552     8.54    4.652
  3     51.0000    749.0194 159.1572932 +15.4671143     10607.61     969.0552     5143.713 -10.0640   0.0992     8.01    5.148
  0   1788.3682    732.7820 158.8472770 +15.4703621     2439.704      267.176     5021.392  -8.4683   0.1189     1.74    1.549
  0    243.8707    750.4926 159.1228768 +15.4669328     27546.37     642.7515     5194.173 -11.1002   0.0253     3.36    1.032
  3     51.0000    758.0042 159.1572896 +15.4655691     4609.577     646.4604      5144.47  -9.1592   0.1523     7.15    2.693
  0    174.9956    745.9075 159.1351686 +15.4676963     7076.523     643.2269     5192.702  -9.6245   0.0987     3.34    1.008
  3     51.0000    766.0250 159.1572864 +15.4641897     12288.57     888.1276     5145.142 -10.2238   0.0785     8.35    4.689
  0    261.9809    748.2660 159.1196460 +15.4673222     3397.879     314.4008     5191.986  -8.8280   0.1005     1.76    1.101
  3     51.1497    788.3065 159.1572507 +15.4603579     16642.35     675.4875     5146.991 -10.5530   0.0441     8.93    6.664
  0   1733.2770    756.4727 158.8571041 +15.4662800      4759.35     297.8758     5034.341  -9.1939   0.0680     1.24    1.219
  3     51.0000    773.9902 159.1572832 +15.4628199     12932.04     742.6943     5145.814 -10.2792   0.0624     6.00    2.421
  3     51.2381    798.7855 159.1572307 +15.4585557     7971.705     572.5592     5147.916  -9.7539   0.0780     7.50    5.145
  0   1779.8115    788.2488 158.8487959 +15.4608218     20702.36     801.1385     5027.767 -10.7900   0.0420     3.68    1.082
  0   1804.3645    783.1576 158.8444154 +15.4617007     4636.583     297.7732     5022.759  -9.1655   0.0697     1.55    1.146
  0    377.2743    784.2720 159.0990603 +15.4611700     3017.307     277.6113     5181.278  -8.6990   0.0999     1.21    1.285
  0    379.4653    794.4711 159.0986657 +15.4594167     25794.21     888.8713     5184.269 -11.0288   0.0374     3.42    1.019
  0   1440.4531    787.4667 158.9093497 +15.4609008     2083.243     295.6325     5073.013  -8.2968   0.1541     0.33    1.009
  3     51.0000    806.5264 159.1572701 +15.4572244     5476.913     547.3524     5148.507  -9.3463   0.1085     7.02    5.097
  0   1354.4885    790.9848 158.9246882 +15.4602791     4277.265     297.4729     5097.353  -9.0779   0.0755     1.49    1.475
  0   1806.4735    788.4744 158.8440384 +15.4607867     1410.382     255.8775     5022.719  -7.8733   0.1970     0.16    1.019
  0   1335.3560    792.2056 158.9281019 +15.4600653     3866.799     297.1295     5104.395  -8.9684   0.0834     1.60    1.133
  3     51.0000    815.9661 159.1572663 +15.4556009     17492.47     638.8487     5149.142 -10.6071   0.0397     8.23    5.235
  3     51.0000    829.9625 159.1572607 +15.4531939     12449.62     774.5538      5150.13 -10.2379   0.0676     9.06    6.466
  0   1440.1237    800.1929 158.9094061 +15.4587121     12303.85     353.3684     5075.861 -10.2251   0.0312     1.47    1.032
  0   1440.3846    804.7301 158.9093586 +15.4579319     2887.858      267.593     5076.875  -8.6514   0.1006     2.00    1.490
  3     51.0730    868.1252 159.1572324 +15.4466308     43228.88     1123.816     5152.695 -11.5894   0.0282    10.47   11.352
  3     51.1970    845.6143 159.1572193 +15.4505022     22760.98     1121.685     5151.259 -10.8930   0.0535     8.95    7.108
  0   1588.4397    849.9419 158.8829328 +15.4501826     265112.6     950.6621      5060.92 -13.5586   0.0039     3.42    1.090
  0    205.5770    834.2404 159.1296782 +15.4525161      2509.98     277.1563     5214.462  -8.4992   0.1199     1.19    1.417
  0   1400.6215    853.8044 158.9164439 +15.4494845     23252.84     1097.472     5098.992 -10.9162   0.0513     5.21    1.099
  0    535.9731    850.4183 159.0707210 +15.4498463     6566.579     392.9385     5188.293  -9.5433   0.0650     1.58    1.362
  3     51.0000    884.5002 159.1572389 +15.4438146     21375.28     1059.503     5153.236 -10.8248   0.0538    10.22    5.982
  0    611.1785    867.9714 159.0572967 +15.4468510     79440.47     775.1623     5180.173 -12.2501   0.0106     3.14    1.072
  0    998.3107    858.1888 158.9882256 +15.4486412      6954.45     308.5769      5184.15  -9.6057   0.0482     1.38    1.127
  3     51.2312    917.0561 159.1571846 +15.4382158     18106.04     1278.161     5154.253 -10.6446   0.0767    10.29    7.968
  3     51.0000    905.5793 159.1572304 +15.4401895     21621.01     824.6595     5153.903 -10.8372   0.0414     8.55    7.716
  0   1966.6017    894.2118 158.8154535 +15.4426219     19478.03     773.3257     5008.775 -10.7239   0.0431     4.00    1.152
  0     96.6447    892.2955 159.1490919 +15.4424914      7819.01     699.7693     5210.119  -9.7329   0.0972     3.98    1.689
  3     51.0550    932.8419 159.1572097 +15.4355009     12006.37     677.7717     5155.842 -10.1985   0.0613     9.08    8.846
  0    800.0256    914.8768 159.0235883 +15.4388395     101576.3     771.8138     5206.204 -12.5170   0.0083     3.29    1.105
  0    137.3448    900.1068 159.1418272 +15.4411634     12013.65     881.9516     5217.125 -10.1992   0.0797     5.31    1.389
  0   1678.9640    904.4124 158.8667722 +15.4408293     9281.729     605.1935     5050.024  -9.9191   0.0708     5.42    1.230
  0    949.2433    911.8131 158.9969661 +15.4394064     22968.88     986.0051     5197.346 -10.9028   0.0466     3.75    1.122
  0     95.2155    919.9753 159.1493359 +15.4377306        13157      662.085     5210.722 -10.2979   0.0546     3.76    1.031
  0   1089.4670    923.6245 158.9719448 +15.4374099     18696.87     769.5754     5190.965 -10.6794   0.0447     3.26    1.164
  3     51.0000    945.0009 159.1572146 +15.4334098     7680.667     740.9333     5159.464  -9.7135   0.1048     9.68    5.309
  0   1466.4497    924.4830 158.9046849 +15.4373417      2596.25     257.0278     5099.975  -8.5359   0.1075     0.36    1.017
  0    561.5724    937.2717 159.0661251 +15.4349174      5328.08     324.3545     5207.738  -9.3164   0.0661     1.82    1.234
  3     51.0000    955.4821 159.1572104 +15.4316073     5623.736     590.1241     5162.483  -9.3751   0.1140     7.68    3.601
  0    927.4891    942.9662 159.0008390 +15.4340431     4094.363     505.6934     5208.019  -9.0305   0.1341     2.26    1.543
  3     51.0000    962.5187 159.1572076 +15.4303972     6117.803     567.0133     5164.898  -9.4665   0.1007     7.29    3.823
  3     51.0000    971.5670 159.1572039 +15.4288410     9449.408     715.5968     5167.615  -9.9385   0.0822     9.06    5.120
  0   1072.3495    959.6998 158.9749899 +15.4312016      12190.3     731.4595     5194.835 -10.2150   0.0652     3.42    1.104
  0    301.0659    956.3430 159.1125959 +15.4315512     3409.945     305.7062     5234.932  -8.8319   0.0974     1.36    1.139
  0    158.3943    961.1443 159.1380481 +15.4306741     7341.414     553.1003      5227.59  -9.6644   0.0818     3.49    1.164
  3     51.0000    985.4304 159.1571984 +15.4264568     10533.17     715.9734     5171.539 -10.0564   0.0738     9.14    5.723
  0   1512.1195    986.4694 158.8965253 +15.4266896     442989.2     1006.899      5106.45 -14.1160   0.0025     3.37    1.108
  0     83.8666    970.2664 159.1513408 +15.4290773     12686.88     657.8183      5206.66 -10.2584   0.0563     5.02    1.347
  0   1536.0284    974.3414 158.8922619 +15.4287796     14142.53     815.8109      5094.38 -10.3763   0.0626     3.57    1.151
  3     51.3066   1004.9683 159.1571359 +15.4230969     20875.65     688.8994     5179.497 -10.7991   0.0358     9.12    5.527
  3     51.0000    995.4500 159.1571944 +15.4247337     6156.367     552.5671     5174.878  -9.4733   0.0975     7.12    3.920
  0    799.5593    986.0538 159.0236509 +15.4265984     19447.72     843.4263      5224.93 -10.7222   0.0471     3.45    1.190
  0    252.2726    981.2820 159.1212919 +15.4272450     3267.137     267.9453     5240.781  -8.7854   0.0891     1.08    1.268
  0    260.8540    987.7373 159.1197585 +15.4261379     8620.404     793.9863     5244.009  -9.8388   0.1000     4.24    1.320
  0   1170.7423   1006.6360 158.9574245 +15.4231525     29421.14     400.4666     5196.806 -11.1716   0.0148     2.05    1.155
  0   1066.4551   1006.5103 158.9760298 +15.4231497      1805.38     256.2612     5204.791  -8.1414   0.1542     0.37    1.004
  2     51.0000   1021.0146 159.1571841 +15.4203371     10416.11     791.1448     5186.887 -10.0443   0.0825     6.77    2.891
  0    649.6769   1023.4482 159.0503792 +15.4201240     10655.54     665.2139      5227.15 -10.0689   0.0678     3.56    1.105
  0   1353.2323   1028.4126 158.9248631 +15.4194463     5114.309      516.748     5147.006  -9.2720   0.1097     3.43    1.678
  4   1768.5831   1328.4939 158.8507207 +15.3679097      1121896     1252.004     5044.368 -15.1249   0.0012     3.72    1.095
  0   1990.4132   2007.8145 158.8110796 +15.2511103     6854.003     604.1948     4844.167  -9.5899   0.0957     3.64    2.639
  0   1614.1621   1991.9773 158.8781507 +15.2537823     20441.77      830.826     4997.867 -10.7763   0.0441     4.27    1.164
  0    402.4359   1759.4823 159.0942306 +15.2934641      2785.59     346.6032     5106.253  -8.6123   0.1351     0.21    1.014
  4   1374.4967   1767.5195 158.9209186 +15.2923404      2213782     1572.381     5053.513 -15.8628   0.0008     4.21    1.046
  0   1141.5796   1754.0532 158.9624488 +15.2946065     332684.2     968.1819     5101.113 -13.8051   0.0032     3.43    1.048
  0    124.2929   1973.2682 159.1437376 +15.2565997     5073.508     307.0569      5138.62  -9.2633   0.0657     1.26    1.054
  0   1565.8334   1752.3160 158.8868078 +15.2949902      40670.4     943.0021     5031.712 -11.5232   0.0252     3.76    1.102
  0   1937.9562   1965.4658 158.8204354 +15.2583872     9635.172     811.1149     4916.901  -9.9596   0.0914     4.55    1.611
  0    799.0328   1912.4847 159.0234766 +15.2672729     7017.297     634.7567     5103.407  -9.6154   0.0982     3.71    1.582
  0   1370.8729   1937.4614 158.9215300 +15.2631137     597739.3     1131.261     5036.809 -14.4413   0.0021     3.82    1.103
  0   1405.2668   1987.6615 158.9153887 +15.2544872      28801.3     779.7876     5024.724 -11.1485   0.0294     3.98    1.118
  0    105.9210   1710.5133 159.1471156 +15.3017802     28534.44     889.6379     5160.139 -11.1384   0.0339     4.21    1.035
  0    575.4820   1751.5038 159.0633806 +15.2948920     5845.341     571.6346     5139.976  -9.4170   0.1062     0.63    1.010
  0   1020.5636   1684.3484 158.9840430 +15.3065652    -1652.419     564.3229     5126.303  99.0000  99.0000     4.53    1.930
  0   1513.0201   1962.9977 158.8961853 +15.2587488     7870.906     703.6338     5012.507  -9.7401   0.0971     3.77    1.701
  0    887.9929   1620.2793 159.0076984 +15.3175496     33974.23     834.8679     5143.776 -11.3279   0.0267     3.45    1.049
  4   1034.4769   1749.7435 158.9815456 +15.2953222      1963290     1505.588     5114.148 -15.7325   0.0008     4.14    1.012
  0   1716.3140   1686.4576 158.8599883 +15.3063404     24567.23     383.6187     5003.502 -10.9759   0.0170     1.01    1.015
  0    126.3184   1519.9562 159.1435530 +15.3345591      4929.49     348.1385     5190.647  -9.2320   0.0767     1.37    1.254
  4   1849.2325   1581.7981 158.8363026 +15.3243580      3810255     2021.655       4990.6 -16.4524   0.0006     5.60    1.164
  0   1068.4119   1630.2095 158.9755250 +15.3158876     7391.285     663.9922     5126.445  -9.6718   0.0976     4.09    1.346
  0    143.4963   1640.3867 159.1404432 +15.3138543     24287.62     838.4393     5168.293 -10.9635   0.0375     3.82    1.063
  0   1615.4189   1635.4658 158.8779867 +15.3150940     1434.848     255.9013     5057.919  -7.8920   0.1937     0.36    1.014
  0    411.5231   1640.9364 159.0926516 +15.3138542      5242.02     542.2916     5146.194  -9.2987   0.1123     3.26    1.593
  0   1287.0255   1606.2039 158.9365489 +15.3200652     424899.8     991.5919     5092.897 -14.0707   0.0025     3.36    1.027
  0   1458.6201   1506.8705 158.9059701 +15.3371822     6170.025     450.3134     5107.728  -9.4757   0.0793     3.94    1.175
  0   1308.1331   1658.1528 158.9327740 +15.3111356     5777.536     603.7515     5077.428  -9.4044   0.1135     3.03    1.244
  0    817.3682   1512.5858 159.0203226 +15.3360513      65845.2     1749.523     5185.702 -12.0463   0.0289     7.88    1.625
  0    797.4617   1515.9808 159.0238715 +15.3354619     20360.82     943.3685     5185.364 -10.7720   0.0503     3.47    1.105
  0    511.9078   1548.5043 159.0747828 +15.3297832     13683.89     526.0129     5193.938 -10.3405   0.0417     3.36    1.194
  0    294.0147   1539.0884 159.1136414 +15.3313296     5275.433     449.8189     5174.572  -9.3056   0.0926     3.27    1.014
  0    938.4954   1530.1992 158.9987174 +15.3330546     9729.793     672.9371     5167.265  -9.9703   0.0751     3.47    1.071
  0   1031.4528   1463.4291 158.9821577 +15.3445611      2020.86     266.7858      5171.57  -8.2638   0.1434     0.42    1.009
  0    420.1789   1730.3700 159.0910773 +15.2984766     2410.245     267.1486     5117.014  -8.4552   0.1204     1.10    1.501
  0   1040.7900   1476.0659 158.9804894 +15.3423901     7751.741     676.2084     5167.898  -9.7235   0.0947     3.40    1.256
  0    386.4632   1522.4135 159.0971616 +15.3342290     1964.952      256.416     5185.113  -8.2334   0.1417     0.43    1.015
  0   1000.1370   1633.0742 158.9876984 +15.3153781     10055.23     840.6516     5134.202 -10.0060   0.0908     5.60    1.296
  0    772.4526   1961.2003 159.0282007 +15.2588875     2571.102     267.2983     5088.666  -8.5253   0.1129     1.60    1.518
  0   1314.2554   1527.3624 158.9317103 +15.3336298     6665.432     316.9756      5117.72  -9.5596   0.0516     1.26    1.151
  0   1485.3368   1480.9056 158.9012106 +15.3416525     45285.73     923.9945     5106.086 -11.6399   0.0222     3.58    1.090
  0    923.1956   1456.2678 159.0014658 +15.3457652     13476.19     645.6971     5190.625 -10.3239   0.0520     4.30    1.109
  0    999.4808   1452.4618 158.9878623 +15.3464393     2001.646     256.4517     5179.751  -8.2535   0.1391     0.15    1.005
  0    138.9490   1385.3438 159.1413528 +15.3577141     608697.8     1094.916      5243.01 -14.4610   0.0020     3.45    1.063
  0    340.7835   1628.7489 159.1052694 +15.3159263      21181.5     869.1441     5149.868 -10.8149   0.0446     5.14    1.344
  0   1418.9750   1393.4933 158.9130624 +15.3566731     5854.347     603.7831     5142.911  -9.4187   0.1120     3.73    1.602
  0   1154.9980   1422.5210 158.9601349 +15.3516256     5385.689     612.4673     5165.881  -9.3281   0.1235     3.71    1.591
  0    909.8093   1367.1313 159.0038774 +15.3610912     76658.33     801.6692     5208.073 -12.2114   0.0114     3.21    1.081
  0    954.8292   1422.5447 158.9958334 +15.3515730     41302.86     827.3196     5195.962 -11.5400   0.0218     3.25    1.095
  0    248.5727   1369.6033 159.1218077 +15.3604611     756251.2     1103.755     5243.522 -14.6967   0.0016     3.35    1.035
  0   1237.7906   1375.1008 158.9453801 +15.3597993     55331.82     781.3275     5168.864 -11.8574   0.0153     3.38    1.092
  0   1882.1544   1389.4976 158.8304568 +15.3574335     3115.015     296.4994      5031.12  -8.7337   0.1034     1.46    1.434
  0   1161.2572   1379.2278 158.9590288 +15.3590725     4853.391     323.9902     5174.687  -9.2151   0.0725     1.33    1.087
  0    280.4392   1413.4554 159.1161083 +15.3529308     1809.692     295.4023     5222.876  -8.1440   0.1773     0.28    1.013
  0    112.0247   2011.4641 159.1459096 +15.2500263     4421.398     362.9641     5137.935  -9.1139   0.0892     1.50    1.484
  0    453.0097   1905.1923 159.0851641 +15.2684222     6200.231     647.0723     5094.123  -9.4810   0.1133     5.02    1.274
  0    485.5268   2008.5474 159.0793326 +15.2506582     3346.611     417.5994     5085.973  -8.8115   0.1355     1.62    1.018
  0   1210.3496   1253.0444 158.9503021 +15.3807843     8187.112     692.1452      5195.99  -9.7828   0.0918     2.85    1.304
  0    276.0455   1173.4955 159.1169800 +15.3941970     2617.663     296.0818     5262.637  -8.5448   0.1228     1.22    1.469
  0   1624.3279   1151.4506 158.8764790 +15.3983354     3773.174     268.4147     5087.108  -8.9418   0.0773     1.07    1.347
  0    789.8400   1782.4652 159.0251532 +15.2896306     3199.863     296.5706     5128.274  -8.7628   0.1007     3.17    1.491
  0   1011.7349   1923.7083 158.9855555 +15.2653988     62139.54     790.3511     5095.097 -11.9834   0.0138     3.56    1.045
  0   1906.0015   1076.4717 158.8262430 +15.4112700     580013.1     1095.794      5041.36 -14.4086   0.0021     3.63    1.092
  0   1265.0403   1877.4691 158.9404095 +15.2734092     5964.576     298.8806     5068.279  -9.4389   0.0544     1.31    1.009
  0   1480.8187   1872.8037 158.9019426 +15.2742542     5979.803     625.7833     5021.285  -9.4417   0.1136     3.87    1.336
  0   1779.4756   2010.1656 158.8486798 +15.2506795     36191.74     805.9336     4963.844 -11.3965   0.0242     5.19    1.248
  0   1733.9586   1363.4091 158.8568909 +15.3619001     11589.86     525.0217     5047.496 -10.1602   0.0492     4.04    1.280
  0   1080.4727   1332.0018 158.9734483 +15.3671755     6756.039     621.7662     5209.052  -9.5742   0.0999     3.02    1.144
  0    757.1878   1337.7954 159.0311062 +15.3660945     4501.266     489.6277     5211.757  -9.1333   0.1181     2.53    1.334
  0    235.9418   1599.0206 159.1239748 +15.3210020     7181.958     613.1964     5161.917  -9.6406   0.0927     3.18    1.015
  0    400.5286   1314.3176 159.0947259 +15.3700215       172295      853.251     5245.616 -13.0907   0.0054     3.25    1.063
  0   1900.1461   1435.6256 158.8272422 +15.3495028     30105.63      987.804     5012.222 -11.1966   0.0356     4.07    1.121
  0    416.1204   1307.2885 159.0919474 +15.3712356     24644.19     1270.967     5245.385 -10.9793   0.0560     8.43    1.663
  0    547.4516   1297.4874 159.0685266 +15.3729637     3024.961     277.6181     5236.838  -8.7018   0.0997     0.17    1.009
  0   1014.8484   1684.4137 158.9850620 +15.3065526     39251.99     590.5794     5126.562 -11.4847   0.0163     4.85    1.416
  0   1731.5070   1883.9993 158.8572495 +15.2723701     8355.115     692.2056     4966.438  -9.8049   0.0900     3.74    1.613
  0   1740.3214   1275.6096 158.8557692 +15.3770005     533149.6     1082.613     5066.884 -14.3171   0.0022     3.55    1.084
  0    843.6563   1235.5020 159.0157131 +15.3837109     42244.64     834.0992     5221.598 -11.5644   0.0214     3.20    1.114
  0   1666.7781   1864.3679 158.8687920 +15.2757364     2956.207     267.6565     4981.136  -8.6768   0.0983     1.62    1.494
  0   1802.2792   1233.1400 158.8447242 +15.3843131     102614.3     842.3558     5057.898 -12.5280   0.0089     3.59    1.115
  0   1725.0320   1225.2354 158.8585040 +15.3856616     16546.57     992.5743     5076.442 -10.5468   0.0651     4.28    1.131
  0   1223.7103   1203.8508 158.9479301 +15.3892475     156547.3     876.8018     5200.943 -12.9866   0.0061     3.60    1.174
  0     10.2859   1258.0370 159.1643510 +15.3795588     21682.57     610.2695     5163.429 -10.8403   0.0306     3.66    1.048
  0    763.6945   1217.2482 159.0299812 +15.3868278      23141.3     771.0107     5224.848 -10.9110   0.0362     3.33    1.008
  0   1414.3867   1240.1626 158.9139111 +15.3830418     2565.605     256.9981     5141.295  -8.5230   0.1088     1.24    1.507
  0   1906.4379   1210.5022 158.8261483 +15.3882198     1975.195      256.426     5042.342  -8.2390   0.1410     0.37    1.008
  0    493.9333   1218.2877 159.0780987 +15.3865673      87306.6     1808.652     5243.311 -12.3526   0.0225     7.45    1.102
  0   1658.6624   1829.7489 158.8702445 +15.2816888     31707.59     741.7147     4984.101 -11.2529   0.0254     4.13    1.113
  4     56.8908   1166.5509 159.1560750 +15.3953104      6168062     2641.321      5229.62 -16.9754   0.0005     6.30    1.041
  0   1435.7505   1154.0499 158.9101173 +15.3978554     5761.654     608.1987      5135.32  -9.4014   0.1146     4.10    1.581
  0    581.0551   1173.6908 159.0625730 +15.3942645     4684.505     455.4566     5235.969  -9.1767   0.1056     3.41    1.123
  0   1801.1383   1795.1699 158.8448486 +15.2876566     4647.476     598.7955     4941.206  -9.1680   0.1399     3.90    1.338
  0   1466.7650   1940.6925 158.9044351 +15.2625764     9328.325     745.1172      5020.92  -9.9245   0.0867     3.64    1.143
  0   1153.5020   1135.4452 158.9604697 +15.4009961     2869.383      257.292     5226.423  -8.6445   0.0974     0.48    1.016
  0   1024.5365   1952.8898 158.9832659 +15.2603834     13027.27     545.8511     5088.453 -10.2871   0.0455     3.84    1.200
  0    269.5147   1146.4623 159.1181549 +15.3988438     2617.354     257.0482     5262.425  -8.5447   0.1067     0.33    1.018
  0   1113.4839   1139.4668 158.9676074 +15.4002952     3824.283     411.3748     5229.423  -8.9564   0.1168     0.22    1.002
  0   1611.1923   1138.9788 158.8788243 +15.4004782     24699.66     1308.642     5090.449 -10.9817   0.0575     7.18    3.015
  0   1840.9434   1119.2582 158.8378431 +15.4039035     856268.5     1163.786     5061.494 -14.8315   0.0015     3.56    1.092
  0   1798.9257   1120.8972 158.8453382 +15.4036160     231174.7      947.454     5068.597 -13.4099   0.0045     3.51    1.111
  0    972.5709   1965.1348 158.9925262 +15.2582645     74899.91     811.1667     5082.659 -12.1862   0.0118     3.61    1.088
  0   1134.4213   1121.4534 158.9638768 +15.4033980     2069.619      295.621     5228.187  -8.2897   0.1551     0.44    1.033
  0    928.3120   1087.9847 159.0006530 +15.4091032       6531.4     608.5134     5227.558  -9.5375   0.1012     2.83    1.091
  0   1826.1752   1102.9675 158.8404797 +15.4067032      8764.04      766.358     5062.242  -9.8568   0.0950     5.04    1.249
  0   1710.0388   1102.8473 158.8611972 +15.4067075     53816.35     937.8702     5078.509 -11.8273   0.0189     3.54    1.172
  0   1270.9221   1083.9447 158.9395351 +15.4098790     15348.45     959.0809     5185.921 -10.4652   0.0679     4.48    1.630
  0   1782.1674   1978.4943 158.8482045 +15.2561265     19488.57     676.5349     4961.345 -10.7245   0.0377     4.70    1.171
  0     55.8742   1070.0789 159.1562949 +15.4119011     22758.16     963.8051     5210.289 -10.8928   0.0460     3.82    1.193
  0   1629.4510   1597.3489 158.8754909 +15.3216516     66317.08     903.1337     5058.328 -12.0541   0.0148     3.64    1.109
  0    496.4473   2015.5208 159.0773837 +15.2494625     2983.947     257.4027     5084.466  -8.6870   0.0937     0.32    1.020
  0    136.2570   1077.2725 159.1419525 +15.4106944     3319.306     267.9937     5250.925  -8.8026   0.0877     1.11    1.266
  0    363.4746   1072.8944 159.1014203 +15.4115285     2379.853      295.882     5257.306  -8.4414   0.1350     1.75    1.471
  0    542.0786   1382.4150 159.0694571 +15.3583564     25488.62     743.2659     5226.263 -11.0159   0.0317     3.24    1.020
  0   1214.2660   1061.5219 158.9496472 +15.4137230     8663.275     622.5288     5202.122  -9.8442   0.0780     3.26    6.112
  0   1451.5054   1448.4725 158.9072502 +15.3472240     3199.844     257.6113     5126.206  -8.7628   0.0874     0.66    1.002
  0   1557.8972   1388.7905 158.8882870 +15.3575070     701762.6      1115.86     5093.338 -14.6155   0.0017     3.40    1.074
  0   1852.6234   1851.4199 158.8356620 +15.2779898     13994.72     376.7007     4927.787 -10.3649   0.0292     2.36    1.100
  0    581.0716   1490.2456 159.0624681 +15.3398241     7591.912     386.6693     5208.288  -9.7009   0.0553     1.34    1.093
  0    676.4818   1898.5070 159.0453279 +15.2696415     11215.55      794.799     5110.016 -10.1246   0.0770     4.33    2.134
  0    846.1230   1440.6047 159.0152151 +15.3484383       502051     991.8945     5200.559 -14.2519   0.0021     3.23    1.059
  0   1037.3647   2014.8719 158.9809633 +15.2497271     19987.46     810.9624     5052.842 -10.7519   0.0441     3.89    1.152
  0    161.3000   1752.7186 159.1372255 +15.2945425     34630.82     709.2365     5142.858 -11.3487   0.0222     4.03    1.028
  0   1155.7325   1784.8259 158.9599182 +15.2893176     5809.599      630.014      5099.05  -9.4104   0.1178     4.58    1.501
  0    266.4427   1960.4868 159.1184029 +15.2588494     2967.354     257.3867     5102.849  -8.6809   0.0942     0.14    1.006
  0   1335.1890   1949.4889 158.9278887 +15.2610381     3880.334     297.1408     5045.818  -8.9722   0.0832     1.41    1.428
